Version =  1.64
NumCams = 1
Cam     Date       Time        Roll     Pitch       Yaw
---  ----------  --------  --------  --------  --------
101  04/21/2013  08:00:00      0.00     0.00      0.00
-------------------------------------------------------
Extinction Fit: Multi-Day = 2
Extinction Coef Scale     = 1.008800
Extinction Coef Rayleigh  = 2.846974
Extinction Coef Oxygen2   = 2.846974
Extinction Coef Ozone     = 0.761201
Extinction Coef Dust      = 17.575153
Extinction Coef Water     = 12.857024
-------------------------------------------------------
Number of wavelengths      = 1209
Responsivity normalization = 302172611547.561830
-------------------------------------------------------
Wave(nm)	WeightSum	DayResp	CumResp	SmoothResp	DayExtn	CumExtn
350.0000	0.552	1.012407	1.012407	1.012407	0.422053	0.422053
350.6000	0.553	1.010865	1.010865	1.010865	0.423186	0.423186
351.2000	0.554	1.009078	1.009078	1.009078	0.426129	0.426129
351.8000	0.554	1.008118	1.008118	1.008118	0.432321	0.432321
352.4000	0.554	1.008264	1.008264	1.008264	0.436508	0.436508
353.0000	0.554	1.008449	1.008449	1.008449	0.437178	0.437178
353.6000	0.555	1.007558	1.007558	1.007558	0.437946	0.437946
354.2000	0.556	1.005763	1.005763	1.005763	0.440015	0.440015
354.8000	0.556	1.004245	1.004245	1.004245	0.442683	0.442683
355.4000	0.557	1.003928	1.003928	1.003928	0.444467	0.444467
356.0000	0.556	1.004224	1.004224	1.004224	0.444983	0.444983
356.6000	0.557	1.004019	1.004019	1.004019	0.447808	0.447808
357.2000	0.557	1.002719	1.002719	1.002719	0.453470	0.453470
357.8000	0.558	1.000921	1.000921	1.000921	0.456787	0.456787
358.4000	0.559	0.999425	0.999425	0.999425	0.457365	0.457365
359.0000	0.560	0.998167	0.998167	0.998167	0.459021	0.459021
359.6000	0.561	0.996220	0.996220	0.996220	0.461592	0.461592
360.2000	0.562	0.996512	0.996512	0.996512	0.463242	0.463242
360.8000	0.564	0.975227	0.975227	0.975227	0.463634	0.463634
361.4000	0.566	1.059575	1.059575	1.059575	0.464014	0.464014
362.0000	0.567	0.703158	0.703158	0.703158	0.468076	0.468076
362.6000	0.567	3.555217	3.555217	3.555217	0.474978	0.474978
363.2000	0.568	7.971025	7.971025	7.971025	0.478591	0.478591
363.8000	0.570	8.116572	8.116572	8.116572	0.479646	0.479646
364.4000	0.572	8.119649	8.119649	8.119649	0.482569	0.482569
365.0000	0.574	8.067200	8.067200	8.067200	0.485036	0.485036
365.6000	0.576	8.044409	8.044409	8.044409	0.484818	0.484818
366.2000	0.579	7.981050	7.981050	7.981050	0.487513	0.487513
366.8000	0.582	8.032655	8.032655	8.032655	0.494538	0.494538
367.4000	0.585	7.715685	7.715685	7.715685	0.498387	0.498387
368.0000	0.589	11.150986	11.150986	11.150986	0.498156	0.498156
368.6000	0.594	14.782646	14.782646	14.782646	0.499193	0.499193
369.2000	0.599	14.440105	14.440105	14.440105	0.502123	0.502123
369.8000	0.605	14.555608	14.555608	14.555608	0.505072	0.505072
370.4000	0.610	13.597025	13.597025	13.597025	0.506287	0.506287
371.0000	0.617	18.375536	18.375536	18.375536	0.506102	0.506102
371.6000	0.624	20.800651	20.800651	20.800651	0.509312	0.509312
372.2000	0.633	20.174641	20.174641	20.174641	0.515703	0.515703
372.8000	0.644	19.861911	19.861911	19.861911	0.518624	0.518624
373.4000	0.657	23.165555	23.165555	23.165555	0.518406	0.518406
374.0000	0.671	25.219155	25.219155	25.219155	0.519764	0.519764
374.6000	0.686	25.436110	25.436110	25.436110	0.522750	0.522750
375.2000	0.702	28.895711	28.895711	28.895711	0.525599	0.525599
375.8000	0.721	28.936000	28.936000	28.936000	0.526552	0.526552
376.4000	0.745	30.236509	30.236509	30.236509	0.526463	0.526463
377.0000	0.773	32.162234	32.162234	32.162234	0.530279	0.530279
377.6000	0.805	33.610525	33.610525	33.610525	0.536611	0.536611
378.2000	0.838	33.109673	33.109673	33.109673	0.538628	0.538628
378.8000	0.872	35.899771	35.899771	35.899771	0.537725	0.537725
379.4000	0.905	36.143938	36.143938	36.143938	0.538657	0.538657
380.0000	0.938	39.130125	39.130125	39.130125	0.541303	0.541303
380.6000	0.969	39.694306	39.694306	39.694306	0.544008	0.544008
381.2000	0.999	42.886375	42.886375	42.886375	0.544820	0.544820
381.8000	1.030	44.071864	44.071864	44.071864	0.544918	0.544918
382.4000	1.064	45.022155	45.022155	45.022155	0.549052	0.549052
383.0000	1.105	47.183761	47.183761	47.183761	0.555274	0.555274
383.6000	1.150	47.682291	47.682291	47.682291	0.557784	0.557784
384.2000	1.191	50.549054	50.549054	50.549054	0.558037	0.558037
384.8000	1.227	50.149970	50.149970	50.149970	0.559371	0.559371
385.4000	1.259	51.396340	51.396340	51.396340	0.561833	0.561833
386.0000	1.289	53.947708	53.947708	53.947708	0.564371	0.564371
386.6000	1.318	56.270036	56.270036	56.270036	0.565340	0.565340
387.2000	1.346	58.269615	58.269615	58.269615	0.566279	0.566279
387.8000	1.373	59.091582	59.091582	59.091582	0.568909	0.568909
388.4000	1.399	61.338863	61.338863	61.338863	0.572041	0.572041
389.0000	1.421	64.531894	64.531894	64.531894	0.575217	0.575217
389.6000	1.441	67.564751	67.564751	67.564751	0.577871	0.577871
390.2000	1.459	69.693523	69.693523	69.693523	0.579068	0.579068
390.8000	1.477	73.416741	73.416741	73.416741	0.579830	0.579830
391.4000	1.495	77.177005	77.177005	77.177005	0.582259	0.582259
392.0000	1.512	80.464282	80.464282	80.464282	0.584989	0.584989
392.6000	1.527	83.706532	83.706532	83.706532	0.586412	0.586412
393.2000	1.538	87.950928	87.950928	87.950928	0.585648	0.585648
393.8000	1.549	90.867057	90.867057	90.867057	0.586607	0.586607
394.4000	1.559	94.919289	94.919289	94.919289	0.592474	0.592474
395.0000	1.568	98.637560	98.637560	98.637560	0.597402	0.597402
395.6000	1.576	103.934318	103.934318	103.934318	0.597830	0.597830
396.2000	1.581	108.027822	108.027822	108.027822	0.597688	0.597688
396.8000	1.586	113.684022	113.684022	113.684022	0.599033	0.599033
397.4000	1.590	119.185662	119.185662	119.185662	0.601231	0.601231
398.0000	1.593	124.597287	124.597287	124.597287	0.603530	0.603530
398.6000	1.596	131.031022	131.031022	131.031022	0.605202	0.605202
399.2000	1.598	138.286230	138.286230	138.286230	0.605657	0.605657
399.8000	1.599	144.087802	144.087802	144.087802	0.605528	0.605528
400.4000	1.599	151.391693	151.391693	151.391693	0.608319	0.608319
401.0000	1.597	160.036688	160.036688	160.036688	0.613982	0.613982
401.6000	1.595	167.231306	167.231306	167.231306	0.617333	0.617333
402.2000	1.594	175.270217	175.270217	175.270217	0.617824	0.617824
402.8000	1.592	184.419858	184.419858	184.419858	0.618439	0.618439
403.4000	1.590	192.170794	192.170794	192.170794	0.619973	0.619973
404.0000	1.588	200.733477	200.733477	200.733477	0.621979	0.621979
404.6000	1.586	211.156302	211.156302	211.156302	0.623043	0.623043
405.2000	1.583	221.656018	221.656018	221.656018	0.623564	0.623564
405.8000	1.579	230.780519	230.780519	230.780519	0.626107	0.626107
406.4000	1.575	240.899565	240.899565	240.899565	0.629156	0.629156
407.0000	1.570	250.973948	250.973948	250.973948	0.632403	0.632403
407.6000	1.566	262.215417	262.215417	262.215417	0.634971	0.634971
408.2000	1.562	273.999627	273.999627	273.999627	0.636372	0.636372
408.8000	1.557	283.723659	283.723659	283.723659	0.636182	0.636182
409.4000	1.551	296.527387	296.527387	296.527387	0.637698	0.637698
410.0000	1.545	306.466999	306.466999	306.466999	0.640013	0.640013
410.6000	1.538	317.328683	317.328683	317.328683	0.641822	0.641822
411.2000	1.532	328.827809	328.827809	328.827809	0.642404	0.642404
411.8000	1.525	339.035523	339.035523	339.035523	0.643619	0.643619
412.4000	1.518	350.817569	350.817569	350.817569	0.646117	0.646117
413.0000	1.511	361.994995	361.994995	361.994995	0.649009	0.649009
413.6000	1.505	371.329213	371.329213	371.329213	0.651806	0.651806
414.2000	1.498	382.282720	382.282720	382.282720	0.654013	0.654013
414.8000	1.491	392.969848	392.969848	392.969848	0.654418	0.654418
415.4000	1.484	402.396552	402.396552	402.396552	0.654842	0.654842
416.0000	1.478	411.998202	411.998202	411.998202	0.656799	0.656799
416.6000	1.471	421.971638	421.971638	421.971638	0.658615	0.658615
417.2000	1.464	430.302136	430.302136	430.302136	0.660298	0.660298
417.8000	1.457	441.478485	441.478485	441.478485	0.662501	0.662501
418.4000	1.451	449.979181	449.979181	449.979181	0.663490	0.663490
419.0000	1.445	459.753634	459.753634	459.753634	0.662739	0.662739
419.6000	1.439	468.003979	468.003979	468.003979	0.664145	0.664145
420.2000	1.434	478.861387	478.861387	478.861387	0.666700	0.666700
420.8000	1.429	488.192904	488.192904	488.192904	0.669708	0.669708
421.4000	1.424	498.731182	498.731182	498.731182	0.672265	0.672265
422.0000	1.418	507.891331	507.891331	507.891331	0.673874	0.673874
422.6000	1.412	519.517212	519.517212	519.517212	0.673666	0.673666
423.2000	1.407	529.783993	529.783993	529.783993	0.674943	0.674943
423.8000	1.402	539.845485	539.845485	539.845485	0.677289	0.677289
424.4000	1.397	550.584651	550.584651	550.584651	0.679298	0.679298
425.0000	1.391	562.142254	562.142254	562.142254	0.679669	0.679669
425.6000	1.385	572.793253	572.793253	572.793253	0.679942	0.679942
426.2000	1.379	583.436698	583.436698	583.436698	0.682255	0.682255
426.8000	1.374	595.574466	595.574466	595.574466	0.685140	0.685140
427.4000	1.369	606.223970	606.223970	606.223970	0.688043	0.688043
428.0000	1.364	618.585090	618.585090	618.585090	0.690212	0.690212
428.6000	1.358	629.482265	629.482265	629.482265	0.690352	0.690352
429.2000	1.352	641.444110	641.444110	641.444110	0.690072	0.690072
429.8000	1.347	654.697856	654.697856	654.697856	0.691936	0.691936
430.4000	1.341	666.424374	666.424374	666.424374	0.694051	0.694051
431.0000	1.337	677.206967	677.206967	677.206967	0.695655	0.695655
431.6000	1.332	689.904195	689.904195	689.904195	0.697145	0.697145
432.2000	1.327	701.164208	701.164208	701.164208	0.698012	0.698012
432.8000	1.321	713.107942	713.107942	713.107942	0.698022	0.698022
433.4000	1.316	726.316531	726.316531	726.316531	0.699346	0.699346
434.0000	1.310	739.112100	739.112100	739.112100	0.701240	0.701240
434.6000	1.304	752.149920	752.149920	752.149920	0.703502	0.703502
435.2000	1.299	763.840995	763.840995	763.840995	0.705577	0.705577
435.8000	1.294	775.677063	775.677063	775.677063	0.707461	0.707461
436.4000	1.289	787.478646	787.478646	787.478646	0.708090	0.708090
437.0000	1.284	801.154334	801.154334	801.154334	0.709047	0.709047
437.6000	1.279	813.335652	813.335652	813.335652	0.710316	0.710316
438.2000	1.273	826.191032	826.191032	826.191032	0.711404	0.711404
438.8000	1.267	839.121168	839.121168	839.121168	0.712690	0.712690
439.4000	1.261	852.310851	852.310851	852.310851	0.713993	0.713993
440.0000	1.256	863.256877	863.256877	863.256877	0.714160	0.714160
440.6000	1.251	877.246590	877.246590	877.246590	0.714688	0.714688
441.2000	1.246	890.011899	890.011899	890.011899	0.716202	0.716202
441.8000	1.241	901.408611	901.408611	901.408611	0.717767	0.717767
442.4000	1.236	913.908435	913.908435	913.908435	0.719522	0.719522
443.0000	1.232	925.445360	925.445360	925.445360	0.721248	0.721248
443.6000	1.228	937.011822	937.011822	937.011822	0.722729	0.722729
444.2000	1.224	948.662174	948.662174	948.662174	0.724230	0.724230
444.8000	1.220	961.502730	961.502730	961.502730	0.724350	0.724350
445.4000	1.215	972.552556	972.552556	972.552556	0.725123	0.725123
446.0000	1.211	983.646289	983.646289	983.646289	0.727172	0.727172
446.6000	1.206	994.072731	994.072731	994.072731	0.729078	0.729078
447.2000	1.201	1007.770656	1007.770656	1007.770656	0.730617	0.730617
447.8000	1.195	1019.656116	1019.656116	1019.656116	0.731660	0.731660
448.4000	1.190	1031.886668	1031.886668	1031.886668	0.731056	0.731056
449.0000	1.185	1043.770115	1043.770115	1043.770115	0.729873	0.729873
449.6000	1.181	1055.290691	1055.290691	1055.290691	0.731428	0.731428
450.2000	1.177	1066.788599	1066.788599	1066.788599	0.734045	0.734045
450.8000	1.173	1078.457450	1078.457450	1078.457450	0.737044	0.737044
451.4000	1.168	1089.488187	1089.488187	1089.488187	0.739571	0.739571
452.0000	1.162	1101.799039	1101.799039	1101.799039	0.741490	0.741490
452.6000	1.158	1111.730302	1111.730302	1111.730302	0.741719	0.741719
453.2000	1.154	1123.372777	1123.372777	1123.372777	0.742743	0.742743
453.8000	1.150	1133.629463	1133.629463	1133.629463	0.744426	0.744426
454.4000	1.145	1145.649169	1145.649169	1145.649169	0.746191	0.746191
455.0000	1.141	1156.116837	1156.116837	1156.116837	0.747384	0.747384
455.6000	1.137	1168.264850	1168.264850	1168.264850	0.747740	0.747740
456.2000	1.133	1178.098666	1178.098666	1178.098666	0.747562	0.747562
456.8000	1.129	1189.519605	1189.519605	1189.519605	0.748820	0.748820
457.4000	1.124	1203.345865	1203.345865	1203.345865	0.749992	0.749992
458.0000	1.119	1215.524213	1215.524213	1215.524213	0.751434	0.751434
458.6000	1.114	1229.026944	1229.026944	1229.026944	0.752970	0.752970
459.2000	1.110	1237.477783	1237.477783	1237.477783	0.754420	0.754420
459.8000	1.107	1249.342616	1249.342616	1249.342616	0.755605	0.755605
460.4000	1.103	1261.857973	1261.857973	1261.857973	0.756821	0.756821
461.0000	1.098	1275.038091	1275.038091	1275.038091	0.756844	0.756844
461.6000	1.093	1288.619457	1288.619457	1288.619457	0.757830	0.757830
462.2000	1.089	1301.382856	1301.382856	1301.382856	0.759062	0.759062
462.8000	1.085	1311.451708	1311.451708	1311.451708	0.759612	0.759612
463.4000	1.082	1323.582114	1323.582114	1323.582114	0.760190	0.760190
464.0000	1.079	1334.553849	1334.553849	1334.553849	0.760854	0.760854
464.6000	1.074	1347.677134	1347.677134	1347.677134	0.760740	0.760740
465.2000	1.070	1358.746067	1358.746067	1358.746067	0.761524	0.761524
465.8000	1.065	1371.749051	1371.749051	1371.749051	0.762985	0.762985
466.4000	1.061	1382.272565	1382.272565	1382.272565	0.764562	0.764562
467.0000	1.057	1393.780180	1393.780180	1393.780180	0.766308	0.766308
467.6000	1.054	1404.385669	1404.385669	1404.385669	0.768017	0.768017
468.2000	1.051	1415.439984	1415.439984	1415.439984	0.769482	0.769482
468.8000	1.047	1427.734960	1427.734960	1427.734960	0.771068	0.771068
469.4000	1.041	1440.379831	1440.379831	1440.379831	0.771121	0.771121
470.0000	1.036	1455.131003	1455.131003	1455.131003	0.771277	0.771277
470.6000	1.032	1465.529537	1465.529537	1465.529537	0.772041	0.772041
471.2000	1.029	1477.281921	1477.281921	1477.281921	0.772654	0.772654
471.8000	1.026	1486.691393	1486.691393	1486.691393	0.773191	0.773191
472.4000	1.022	1498.987767	1498.987767	1498.987767	0.773799	0.773799
473.0000	1.018	1510.147139	1510.147139	1510.147139	0.774238	0.774238
473.6000	1.013	1523.412304	1523.412304	1523.412304	0.774251	0.774251
474.2000	1.009	1534.954075	1534.954075	1534.954075	0.773731	0.773731
474.8000	1.005	1547.540164	1547.540164	1547.540164	0.773875	0.773875
475.4000	1.001	1557.003853	1557.003853	1557.003853	0.774517	0.774517
476.0000	0.998	1570.484580	1570.484580	1570.484580	0.775152	0.775152
476.6000	0.995	1581.164852	1581.164852	1581.164852	0.775896	0.775896
477.2000	0.992	1590.692745	1590.692745	1590.692745	0.776702	0.776702
477.8000	0.988	1600.761952	1600.761952	1600.761952	0.777520	0.777520
478.4000	0.984	1611.576310	1611.576310	1611.576310	0.778303	0.778303
479.0000	0.980	1624.251241	1624.251241	1624.251241	0.779003	0.779003
479.6000	0.976	1637.558994	1637.558994	1637.558994	0.780413	0.780413
480.2000	0.972	1648.276255	1648.276255	1648.276255	0.781169	0.781169
480.8000	0.969	1658.599948	1658.599948	1658.599948	0.782010	0.782010
481.4000	0.966	1669.093794	1669.093794	1669.093794	0.783553	0.783553
482.0000	0.962	1680.595606	1680.595606	1680.595606	0.785569	0.785569
482.6000	0.957	1692.950761	1692.950761	1692.950761	0.786317	0.786317
483.2000	0.953	1705.691691	1705.691691	1705.691691	0.786477	0.786477
483.8000	0.949	1718.485559	1718.485559	1718.485559	0.788431	0.788431
484.4000	0.944	1730.621419	1730.621419	1730.621419	0.790935	0.790935
485.0000	0.941	1744.162225	1744.162225	1744.162225	0.793542	0.793542
485.6000	0.937	1756.193792	1756.193792	1756.193792	0.795539	0.795539
486.2000	0.934	1764.826296	1764.826296	1764.826296	0.796053	0.796053
486.8000	0.931	1776.029474	1776.029474	1776.029474	0.795313	0.795313
487.4000	0.927	1787.382506	1787.382506	1787.382506	0.795837	0.795837
488.0000	0.924	1799.166272	1799.166272	1799.166272	0.797048	0.797048
488.6000	0.921	1809.457578	1809.457578	1809.457578	0.798207	0.798207
489.2000	0.917	1819.836789	1819.836789	1819.836789	0.798840	0.798840
489.8000	0.914	1831.731919	1831.731919	1831.731919	0.799406	0.799406
490.4000	0.911	1843.522660	1843.522660	1843.522660	0.800587	0.800587
491.0000	0.907	1855.465252	1855.465252	1855.465252	0.801588	0.801588
491.6000	0.904	1866.921902	1866.921902	1866.921902	0.801947	0.801947
492.2000	0.900	1874.674437	1874.674437	1874.674437	0.802651	0.802651
492.8000	0.897	1887.320812	1887.320812	1887.320812	0.803106	0.803106
493.4000	0.894	1898.999240	1898.999240	1898.999240	0.803651	0.803651
494.0000	0.891	1911.509367	1911.509367	1911.509367	0.804256	0.804256
494.6000	0.887	1922.786203	1922.786203	1922.786203	0.804892	0.804892
495.2000	0.883	1934.408358	1934.408358	1934.408358	0.805532	0.805532
495.8000	0.878	1949.092389	1949.092389	1949.092389	0.806146	0.806146
496.4000	0.874	1963.308598	1963.308598	1963.308598	0.807088	0.807088
497.0000	0.871	1975.811757	1975.811757	1975.811757	0.808371	0.808371
497.6000	0.868	1984.817488	1984.817488	1984.817488	0.808575	0.808575
498.2000	0.865	1994.795823	1994.795823	1994.795823	0.808470	0.808470
498.8000	0.863	2006.087525	2006.087525	2006.087525	0.809340	0.809340
499.4000	0.860	2015.559036	2015.559036	2015.559036	0.810566	0.810566
500.0000	0.857	2025.784141	2025.784141	2025.784141	0.810778	0.810778
500.6000	0.854	2039.238944	2039.238944	2039.238944	0.810631	0.810631
501.2000	0.850	2050.659130	2050.659130	2050.659130	0.810794	0.810794
501.8000	0.847	2063.652733	2063.652733	2063.652733	0.810306	0.810306
502.4000	0.843	2073.939838	2073.939838	2073.939838	0.809028	0.809028
503.0000	0.840	2087.342055	2087.342055	2087.342055	0.808412	0.808412
503.6000	0.836	2099.651283	2099.651283	2099.651283	0.808306	0.808306
504.2000	0.833	2109.922060	2109.922060	2109.922060	0.808396	0.808396
504.8000	0.831	2121.678236	2121.678236	2121.678236	0.808608	0.808608
505.4000	0.828	2128.356853	2128.356853	2128.356853	0.809150	0.809150
506.0000	0.826	2140.821706	2140.821706	2140.821706	0.809765	0.809765
506.6000	0.822	2152.089564	2152.089564	2152.089564	0.810359	0.810359
507.2000	0.819	2162.103306	2162.103306	2162.103306	0.810822	0.810822
507.8000	0.815	2175.591325	2175.591325	2175.591325	0.811365	0.811365
508.4000	0.812	2185.777531	2185.777531	2185.777531	0.812462	0.812462
509.0000	0.809	2197.144985	2197.144985	2197.144985	0.813602	0.813602
509.6000	0.805	2208.912066	2208.912066	2208.912066	0.814162	0.814162
510.2000	0.802	2220.351024	2220.351024	2220.351024	0.815835	0.815835
510.8000	0.799	2230.929099	2230.929099	2230.929099	0.817097	0.817097
511.4000	0.795	2244.495841	2244.495841	2244.495841	0.818588	0.818588
512.0000	0.792	2256.975088	2256.975088	2256.975088	0.820126	0.820126
512.6000	0.789	2264.004852	2264.004852	2264.004852	0.821533	0.821533
513.2000	0.788	2270.711738	2270.711738	2270.711738	0.822628	0.822628
513.8000	0.786	2278.397639	2278.397639	2278.397639	0.823441	0.823441
514.4000	0.784	2288.623541	2288.623541	2288.623541	0.822796	0.822796
515.0000	0.780	2298.160250	2298.160250	2298.160250	0.823104	0.823104
515.6000	0.776	2312.394106	2312.394106	2312.394106	0.824029	0.824029
516.2000	0.772	2327.328561	2327.328561	2327.328561	0.824707	0.824707
516.8000	0.769	2336.466555	2336.466555	2336.466555	0.824773	0.824773
517.4000	0.767	2345.829197	2345.829197	2345.829197	0.824679	0.824679
518.0000	0.765	2353.414795	2353.414795	2353.414795	0.825568	0.825568
518.6000	0.764	2358.419424	2358.419424	2358.419424	0.826786	0.826786
519.2000	0.761	2367.442393	2367.442393	2367.442393	0.826936	0.826936
519.8000	0.757	2382.093583	2382.093583	2382.093583	0.826867	0.826867
520.4000	0.754	2394.705474	2394.705474	2394.705474	0.826975	0.826975
521.0000	0.751	2402.649816	2402.649816	2402.649816	0.827137	0.827137
521.6000	0.749	2412.300937	2412.300937	2412.300937	0.827326	0.827326
522.2000	0.746	2424.449260	2424.449260	2424.449260	0.827519	0.827519
522.8000	0.743	2435.572808	2435.572808	2435.572808	0.827690	0.827690
523.4000	0.739	2447.185411	2447.185411	2447.185411	0.827817	0.827817
524.0000	0.736	2457.007786	2457.007786	2457.007786	0.827873	0.827873
524.6000	0.734	2468.242633	2468.242633	2468.242633	0.827398	0.827398
525.2000	0.732	2479.581314	2479.581314	2479.581314	0.826775	0.826775
525.8000	0.729	2486.416115	2486.416115	2486.416115	0.826769	0.826769
526.4000	0.727	2494.918545	2494.918545	2494.918545	0.826892	0.826892
527.0000	0.724	2505.419740	2505.419740	2505.419740	0.826871	0.826871
527.6000	0.720	2518.051516	2518.051516	2518.051516	0.826854	0.826854
528.2000	0.717	2530.499430	2530.499430	2530.499430	0.826860	0.826860
528.8000	0.714	2542.438706	2542.438706	2542.438706	0.826836	0.826836
529.4000	0.713	2549.231211	2549.231211	2549.231211	0.826868	0.826868
530.0000	0.711	2554.959623	2554.959623	2554.959623	0.826958	0.826958
530.6000	0.708	2565.785223	2565.785223	2565.785223	0.826726	0.826726
531.2000	0.705	2579.290357	2579.290357	2579.290357	0.826518	0.826518
531.8000	0.702	2590.677507	2590.677507	2590.677507	0.827049	0.827049
532.4000	0.700	2597.033207	2597.033207	2597.033207	0.827497	0.827497
533.0000	0.699	2602.084299	2602.084299	2602.084299	0.828046	0.828046
533.6000	0.696	2610.835268	2610.835268	2610.835268	0.828662	0.828662
534.2000	0.693	2624.273323	2624.273323	2624.273323	0.829313	0.829313
534.8000	0.689	2637.715916	2637.715916	2637.715916	0.829965	0.829965
535.4000	0.687	2646.427869	2646.427869	2646.427869	0.830588	0.830588
536.0000	0.685	2651.643545	2651.643545	2651.643545	0.831752	0.831752
536.6000	0.684	2658.478200	2658.478200	2658.478200	0.832831	0.832831
537.2000	0.681	2670.662541	2670.662541	2670.662541	0.832891	0.832891
537.8000	0.677	2685.227567	2685.227567	2685.227567	0.832879	0.832879
538.4000	0.674	2697.247621	2697.247621	2697.247621	0.833894	0.833894
539.0000	0.672	2704.488235	2704.488235	2704.488235	0.835044	0.835044
539.6000	0.671	2710.006696	2710.006696	2710.006696	0.835214	0.835214
540.2000	0.669	2717.346238	2717.346238	2717.346238	0.834841	0.834841
540.8000	0.666	2727.460631	2727.460631	2727.460631	0.834309	0.834309
541.4000	0.664	2739.076364	2739.076364	2739.076364	0.833479	0.833479
542.0000	0.661	2750.137754	2750.137754	2750.137754	0.832907	0.832907
542.6000	0.658	2756.804158	2756.804158	2756.804158	0.833046	0.833046
543.2000	0.656	2763.985850	2763.985850	2763.985850	0.833259	0.833259
543.8000	0.654	2771.049606	2771.049606	2771.049606	0.833541	0.833541
544.4000	0.653	2778.456948	2778.456948	2778.456948	0.833869	0.833869
545.0000	0.651	2780.327071	2780.327071	2780.327071	0.834216	0.834216
545.6000	0.648	2790.512325	2790.512325	2790.512325	0.834559	0.834559
546.2000	0.646	2802.245242	2802.245242	2802.245242	0.834873	0.834873
546.8000	0.643	2813.454725	2813.454725	2813.454725	0.835492	0.835492
547.4000	0.640	2820.495508	2820.495508	2820.495508	0.835930	0.835930
548.0000	0.638	2829.244465	2829.244465	2829.244465	0.836450	0.836450
548.6000	0.636	2835.583356	2835.583356	2835.583356	0.837049	0.837049
549.2000	0.635	2838.659596	2838.659596	2838.659596	0.837590	0.837590
549.8000	0.633	2844.775389	2844.775389	2844.775389	0.838235	0.838235
550.4000	0.632	2850.938880	2850.938880	2850.938880	0.838894	0.838894
551.0000	0.630	2852.464570	2852.464570	2852.464570	0.838985	0.838985
551.6000	0.628	2864.173929	2864.173929	2864.173929	0.838912	0.838912
552.2000	0.625	2874.688298	2874.688298	2874.688298	0.839840	0.839840
552.8000	0.622	2881.628004	2881.628004	2881.628004	0.841036	0.841036
553.4000	0.621	2888.767412	2888.767412	2888.767412	0.841169	0.841169
554.0000	0.619	2896.142862	2896.142862	2896.142862	0.841228	0.841228
554.6000	0.617	2901.515188	2901.515188	2901.515188	0.841246	0.841246
555.2000	0.615	2909.920919	2909.920919	2909.920919	0.841233	0.841233
555.8000	0.612	2918.494810	2918.494810	2918.494810	0.841199	0.841199
556.4000	0.610	2926.320677	2926.320677	2926.320677	0.841155	0.841155
557.0000	0.608	2932.351799	2932.351799	2932.351799	0.841110	0.841110
557.6000	0.607	2935.661063	2935.661063	2935.661063	0.841076	0.841076
558.2000	0.605	2946.250798	2946.250798	2946.250798	0.841063	0.841063
558.8000	0.602	2955.981659	2955.981659	2955.981659	0.841228	0.841228
559.4000	0.599	2964.249827	2964.249827	2964.249827	0.840818	0.840818
560.0000	0.597	2970.416917	2970.416917	2970.416917	0.839552	0.839552
560.6000	0.596	2977.339822	2977.339822	2977.339822	0.838782	0.838782
561.2000	0.594	2980.570809	2980.570809	2980.570809	0.838924	0.838924
561.8000	0.593	2985.276581	2985.276581	2985.276581	0.839297	0.839297
562.4000	0.591	2989.653261	2989.653261	2989.653261	0.839074	0.839074
563.0000	0.589	2997.909432	2997.909432	2997.909432	0.837801	0.837801
563.6000	0.588	3002.834902	3002.834902	3002.834902	0.836983	0.836983
564.2000	0.586	3007.498608	3007.498608	3007.498608	0.837319	0.837319
564.8000	0.584	3011.827393	3011.827393	3011.827393	0.836799	0.836799
565.4000	0.583	3018.622690	3018.622690	3018.622690	0.836061	0.836061
566.0000	0.581	3023.162575	3023.162575	3023.162575	0.835095	0.835095
566.6000	0.579	3028.565013	3028.565013	3028.565013	0.834006	0.834006
567.2000	0.578	3034.924310	3034.924310	3034.924310	0.832899	0.832899
567.8000	0.576	3039.565856	3039.565856	3039.565856	0.831775	0.831775
568.4000	0.574	3044.463578	3044.463578	3044.463578	0.829721	0.829721
569.0000	0.573	3049.169380	3049.169380	3049.169380	0.828655	0.828655
569.6000	0.571	3055.623631	3055.623631	3055.623631	0.828069	0.828069
570.2000	0.569	3061.677196	3061.677196	3061.677196	0.827721	0.827721
570.8000	0.568	3063.322130	3063.322130	3063.322130	0.827738	0.827738
571.4000	0.566	3072.568066	3072.568066	3072.568066	0.828456	0.828456
572.0000	0.564	3074.440362	3074.440362	3074.440362	0.828907	0.828907
572.6000	0.562	3083.021750	3083.021750	3083.021750	0.828747	0.828747
573.2000	0.561	3084.695593	3084.695593	3084.695593	0.828500	0.828500
573.8000	0.559	3092.687582	3092.687582	3092.687582	0.828186	0.828186
574.4000	0.557	3095.987041	3095.987041	3095.987041	0.827837	0.827837
575.0000	0.556	3101.595820	3101.595820	3101.595820	0.827484	0.827484
575.6000	0.554	3107.938562	3107.938562	3107.938562	0.827160	0.827160
576.2000	0.552	3111.304037	3111.304037	3111.304037	0.826896	0.826896
576.8000	0.551	3119.856336	3119.856336	3119.856336	0.826615	0.826615
577.4000	0.549	3120.748809	3120.748809	3120.748809	0.826868	0.826868
578.0000	0.548	3128.270981	3128.270981	3128.270981	0.827135	0.827135
578.6000	0.546	3131.734342	3131.734342	3131.734342	0.828351	0.828351
579.2000	0.543	3142.912072	3142.912072	3142.912072	0.830405	0.830405
579.8000	0.541	3154.486866	3154.486866	3154.486866	0.830752	0.830752
580.4000	0.538	3163.379416	3163.379416	3163.379416	0.830989	0.830989
581.0000	0.537	3160.654566	3160.654566	3160.654566	0.833878	0.833878
581.6000	0.537	3163.885870	3163.885870	3163.885870	0.837599	0.837599
582.2000	0.536	3160.266362	3160.266362	3160.266362	0.841480	0.841480
582.8000	0.534	3167.023076	3167.023076	3167.023076	0.844746	0.844746
583.4000	0.533	3171.774567	3171.774567	3171.774567	0.846192	0.846192
584.0000	0.530	3183.810807	3183.810807	3183.810807	0.846348	0.846348
584.6000	0.527	3188.889405	3188.889405	3188.889405	0.847647	0.847647
585.2000	0.525	3202.574366	3202.574366	3202.574366	0.848624	0.848624
585.8000	0.523	3206.672004	3206.672004	3206.672004	0.849071	0.849071
586.4000	0.521	3215.809246	3215.809246	3215.809246	0.849609	0.849609
587.0000	0.520	3216.226658	3216.226658	3216.226658	0.848050	0.848050
587.6000	0.518	3221.351325	3221.351325	3221.351325	0.842471	0.842471
588.2000	0.516	3228.843850	3228.843850	3228.843850	0.836407	0.836407
588.8000	0.515	3231.750771	3231.750771	3231.750771	0.832529	0.832529
589.4000	0.514	3231.965931	3231.965931	3231.965931	0.829492	0.829492
590.0000	0.514	3226.364152	3226.364152	3226.364152	0.827171	0.827171
590.6000	0.512	3233.855338	3233.855338	3233.855338	0.827000	0.827000
591.2000	0.511	3236.060183	3236.060183	3236.060183	0.827842	0.827842
591.8000	0.509	3244.032937	3244.032937	3244.032937	0.827530	0.827530
592.4000	0.507	3248.542632	3248.542632	3248.542632	0.826795	0.826795
593.0000	0.505	3254.060876	3254.060876	3254.060876	0.826997	0.826997
593.6000	0.504	3260.721112	3260.721112	3260.721112	0.828627	0.828627
594.2000	0.502	3260.499459	3260.499459	3260.499459	0.830662	0.830662
594.8000	0.500	3270.835309	3270.835309	3270.835309	0.830361	0.830361
595.4000	0.499	3273.298770	3273.298770	3273.298770	0.829600	0.829600
596.0000	0.497	3283.867754	3283.867754	3283.867754	0.833124	0.833124
596.6000	0.495	3284.580543	3284.580543	3284.580543	0.838087	0.838087
597.2000	0.494	3288.277807	3288.277807	3288.277807	0.839857	0.839857
597.8000	0.492	3295.029404	3295.029404	3295.029404	0.840151	0.840151
598.4000	0.490	3302.088241	3302.088241	3302.088241	0.841165	0.841165
599.0000	0.489	3304.828538	3304.828538	3304.828538	0.843015	0.843015
599.6000	0.487	3310.707203	3310.707203	3310.707203	0.844826	0.844826
600.2000	0.485	3317.249480	3317.249480	3317.249480	0.845192	0.845192
600.8000	0.484	3319.822568	3319.822568	3319.822568	0.845905	0.845905
601.4000	0.482	3325.651563	3325.651563	3325.651563	0.847680	0.847680
602.0000	0.480	3328.904700	3328.904700	3328.904700	0.849919	0.849919
602.6000	0.478	3336.967351	3336.967351	3336.967351	0.852116	0.852116
603.2000	0.477	3339.882919	3339.882919	3339.882919	0.853971	0.853971
603.8000	0.475	3345.422266	3345.422266	3345.422266	0.854355	0.854355
604.4000	0.474	3352.476827	3352.476827	3352.476827	0.854326	0.854326
605.0000	0.472	3359.930810	3359.930810	3359.930810	0.855040	0.855040
605.6000	0.470	3364.114080	3364.114080	3364.114080	0.856208	0.856208
606.2000	0.468	3369.335754	3369.335754	3369.335754	0.857301	0.857301
606.8000	0.467	3368.588742	3368.588742	3368.588742	0.857910	0.857910
607.4000	0.466	3370.055717	3370.055717	3370.055717	0.858460	0.858460
608.0000	0.466	3367.013123	3367.013123	3367.013123	0.859143	0.859143
608.6000	0.464	3371.481243	3371.481243	3371.481243	0.859298	0.859298
609.2000	0.462	3374.802415	3374.802415	3374.802415	0.859712	0.859712
609.8000	0.461	3383.633140	3383.633140	3383.633140	0.860971	0.860971
610.4000	0.459	3388.042075	3388.042075	3388.042075	0.862154	0.862154
611.0000	0.457	3395.911876	3395.911876	3395.911876	0.863474	0.863474
611.6000	0.456	3395.710960	3395.710960	3395.710960	0.864769	0.864769
612.2000	0.455	3393.848662	3393.848662	3393.848662	0.865874	0.865874
612.8000	0.454	3395.898653	3395.898653	3395.898653	0.866896	0.866896
613.4000	0.453	3396.197831	3396.197831	3396.197831	0.866698	0.866698
614.0000	0.451	3404.017820	3404.017820	3404.017820	0.866406	0.866406
614.6000	0.449	3408.120184	3408.120184	3408.120184	0.867170	0.867170
615.2000	0.448	3417.090152	3417.090152	3417.090152	0.868466	0.868466
615.8000	0.446	3421.687781	3421.687781	3421.687781	0.869467	0.869467
616.4000	0.444	3426.459671	3426.459671	3426.459671	0.869557	0.869557
617.0000	0.443	3435.281482	3435.281482	3435.281482	0.869499	0.869499
617.6000	0.441	3438.404730	3438.404730	3438.404730	0.870001	0.870001
618.2000	0.439	3445.712658	3445.712658	3445.712658	0.870908	0.870908
618.8000	0.438	3452.907534	3452.907534	3452.907534	0.871547	0.871547
619.4000	0.436	3455.559289	3455.559289	3455.559289	0.870953	0.870953
620.0000	0.434	3461.552497	3461.552497	3461.552497	0.870412	0.870412
620.6000	0.432	3470.976852	3470.976852	3470.976852	0.870726	0.870726
621.2000	0.431	3471.774767	3471.774767	3471.774767	0.871140	0.871140
621.8000	0.430	3471.152621	3471.152621	3471.152621	0.871647	0.871647
622.4000	0.430	3472.345077	3472.345077	3472.345077	0.872191	0.872191
623.0000	0.428	3471.542112	3471.542112	3471.542112	0.872715	0.872715
623.6000	0.427	3478.992236	3478.992236	3478.992236	0.873163	0.873163
624.2000	0.425	3485.095650	3485.095650	3485.095650	0.873478	0.873478
624.8000	0.423	3493.600134	3493.600134	3493.600134	0.873445	0.873445
625.4000	0.421	3499.100710	3499.100710	3499.100710	0.873503	0.873503
626.0000	0.420	3505.398074	3505.398074	3505.398074	0.875025	0.875025
626.6000	0.419	3501.571940	3501.571940	3501.571940	0.869184	0.869184
627.2000	0.418	3501.962077	3501.962077	3501.962077	0.853060	0.853060
627.8000	0.417	3500.870208	3500.870208	3500.870208	0.842506	0.842506
628.4000	0.416	3508.170508	3508.170508	3508.170508	0.841770	0.841770
629.0000	0.414	3514.139282	3514.139282	3514.139282	0.839068	0.839068
629.6000	0.412	3526.263825	3526.263825	3526.263825	0.837534	0.837534
630.2000	0.410	3532.203253	3532.203253	3532.203253	0.847672	0.847672
630.8000	0.409	3531.754460	3531.754460	3531.754460	0.858853	0.858853
631.4000	0.408	3532.708178	3532.708178	3532.708178	0.859851	0.859851
632.0000	0.407	3533.294001	3533.294001	3533.294001	0.861986	0.861986
632.6000	0.406	3530.941531	3530.941531	3530.941531	0.870959	0.870959
633.2000	0.404	3534.847426	3534.847426	3534.847426	0.876369	0.876369
633.8000	0.403	3546.515591	3546.515591	3546.515591	0.876476	0.876476
634.4000	0.401	3554.322559	3554.322559	3554.322559	0.878135	0.878135
635.0000	0.399	3558.380053	3558.380053	3558.380053	0.880594	0.880594
635.6000	0.397	3558.897859	3558.897859	3558.897859	0.880657	0.880657
636.2000	0.396	3567.651399	3567.651399	3567.651399	0.881980	0.881980
636.8000	0.396	3562.739996	3562.739996	3562.739996	0.884460	0.884460
637.4000	0.395	3557.291379	3557.291379	3557.291379	0.887475	0.887475
638.0000	0.394	3550.718688	3550.718688	3550.718688	0.890095	0.890095
638.6000	0.393	3553.562529	3553.562529	3553.562529	0.891645	0.891645
639.2000	0.392	3559.241315	3559.241315	3559.241315	0.890851	0.890851
639.8000	0.390	3561.530497	3561.530497	3561.530497	0.891305	0.891305
640.4000	0.389	3566.944295	3566.944295	3566.944295	0.892923	0.892923
641.0000	0.387	3572.509272	3572.509272	3572.509272	0.894230	0.894230
641.6000	0.385	3587.560727	3587.560727	3587.560727	0.895015	0.895015
642.2000	0.384	3587.374702	3587.374702	3587.374702	0.895525	0.895525
642.8000	0.383	3585.077427	3585.077427	3585.077427	0.896330	0.896330
643.4000	0.382	3579.227172	3579.227172	3579.227172	0.897538	0.897538
644.0000	0.381	3577.082970	3577.082970	3577.082970	0.898651	0.898651
644.6000	0.381	3578.624542	3578.624542	3578.624542	0.897980	0.897980
645.2000	0.380	3576.031453	3576.031453	3576.031453	0.894170	0.894170
645.8000	0.378	3576.296246	3576.296246	3576.296246	0.890254	0.890254
646.4000	0.377	3579.655553	3579.655553	3579.655553	0.888570	0.888570
647.0000	0.375	3587.720834	3587.720834	3587.720834	0.886908	0.886908
647.6000	0.373	3602.642560	3602.642560	3602.642560	0.884445	0.884445
648.2000	0.371	3609.259664	3609.259664	3609.259664	0.882955	0.882955
648.8000	0.370	3603.944385	3603.944385	3603.944385	0.883406	0.883406
649.4000	0.370	3590.483868	3590.483868	3590.483868	0.885837	0.885837
650.0000	0.370	3576.708659	3576.708659	3576.708659	0.888921	0.888921
650.6000	0.370	3576.848470	3576.848470	3576.848470	0.890883	0.890883
651.2000	0.368	3581.597878	3581.597878	3581.597878	0.890273	0.890273
651.8000	0.366	3594.959016	3594.959016	3594.959016	0.887613	0.887613
652.4000	0.364	3603.023398	3603.023398	3603.023398	0.886703	0.886703
653.0000	0.362	3607.660045	3607.660045	3607.660045	0.889260	0.889260
653.6000	0.361	3603.662890	3603.662890	3603.662890	0.894359	0.894359
654.2000	0.361	3589.677173	3589.677173	3589.677173	0.898759	0.898759
654.8000	0.361	3587.306236	3587.306236	3587.306236	0.899001	0.899001
655.4000	0.361	3579.703393	3579.703393	3579.703393	0.896329	0.896329
656.0000	0.359	3582.922861	3582.922861	3582.922861	0.894011	0.894011
656.6000	0.357	3591.255274	3591.255274	3591.255274	0.896750	0.896750
657.2000	0.355	3600.701747	3600.701747	3600.701747	0.903822	0.903822
657.8000	0.353	3606.669197	3606.669197	3606.669197	0.907435	0.907435
658.4000	0.352	3601.935424	3601.935424	3601.935424	0.907080	0.907080
659.0000	0.352	3599.956522	3599.956522	3599.956522	0.907488	0.907488
659.6000	0.352	3584.424251	3584.424251	3584.424251	0.909127	0.909127
660.2000	0.352	3579.830529	3579.830529	3579.830529	0.910888	0.910888
660.8000	0.350	3585.885213	3585.885213	3585.885213	0.912494	0.912494
661.4000	0.348	3591.461854	3591.461854	3591.461854	0.913741	0.913741
662.0000	0.347	3583.671189	3583.671189	3583.671189	0.914270	0.914270
662.6000	0.347	3573.220006	3573.220006	3573.220006	0.914750	0.914750
663.2000	0.347	3560.757214	3560.757214	3560.757214	0.915560	0.915560
663.8000	0.346	3558.399944	3558.399944	3558.399944	0.916320	0.916320
664.4000	0.344	3565.842440	3565.842440	3565.842440	0.917172	0.917172
665.0000	0.342	3581.325810	3581.325810	3581.325810	0.918026	0.918026
665.6000	0.340	3588.739695	3588.739695	3588.739695	0.918790	0.918790
666.2000	0.339	3591.014448	3591.014448	3591.014448	0.919676	0.919676
666.8000	0.338	3581.380863	3581.380863	3581.380863	0.920125	0.920125
667.4000	0.338	3571.499291	3571.499291	3571.499291	0.920421	0.920421
668.0000	0.338	3558.719162	3558.719162	3558.719162	0.921069	0.921069
668.6000	0.337	3555.594993	3555.594993	3555.594993	0.921838	0.921838
669.2000	0.336	3560.779657	3560.779657	3560.779657	0.922227	0.922227
669.8000	0.333	3573.249342	3573.249342	3573.249342	0.922033	0.922033
670.4000	0.331	3586.854891	3586.854891	3586.854891	0.922484	0.922484
671.0000	0.330	3589.285924	3589.285924	3589.285924	0.923862	0.923862
671.6000	0.329	3579.921699	3579.921699	3579.921699	0.924151	0.924151
672.2000	0.330	3569.104314	3569.104314	3569.104314	0.923907	0.923907
672.8000	0.329	3555.935761	3555.935761	3555.935761	0.924616	0.924616
673.4000	0.328	3556.431492	3556.431492	3556.431492	0.925299	0.925299
674.0000	0.326	3564.300060	3564.300060	3564.300060	0.926112	0.926112
674.6000	0.325	3565.732251	3565.732251	3565.732251	0.926980	0.926980
675.2000	0.325	3551.082463	3551.082463	3551.082463	0.927827	0.927827
675.8000	0.325	3538.724278	3538.724278	3538.724278	0.928577	0.928577
676.4000	0.324	3533.574586	3533.574586	3533.574586	0.929156	0.929156
677.0000	0.322	3539.734414	3539.734414	3539.734414	0.929528	0.929528
677.6000	0.321	3545.640489	3545.640489	3545.640489	0.928470	0.928470
678.2000	0.320	3539.065036	3539.065036	3539.065036	0.928400	0.928400
678.8000	0.320	3526.652070	3526.652070	3526.652070	0.929353	0.929353
679.4000	0.320	3512.523066	3512.523066	3512.523066	0.930136	0.930136
680.0000	0.319	3514.858935	3514.858935	3514.858935	0.930322	0.930322
680.6000	0.317	3522.753876	3522.753876	3522.753876	0.930158	0.930158
681.2000	0.316	3521.581686	3521.581686	3521.581686	0.930777	0.930777
681.8000	0.316	3505.624846	3505.624846	3505.624846	0.930974	0.930974
682.4000	0.316	3495.110758	3495.110758	3495.110758	0.927886	0.927886
683.0000	0.315	3490.085641	3490.085641	3490.085641	0.929460	0.929460
683.6000	0.313	3497.880406	3497.880406	3497.880406	0.941886	0.941886
684.2000	0.311	3501.219062	3501.219062	3501.219062	0.929885	0.929885
684.8000	0.311	3495.452076	3495.452076	3495.452076	0.902467	0.902467
685.4000	0.311	3478.577201	3478.577201	3478.577201	0.866810	0.866810
686.0000	0.311	3467.253956	3467.253956	3467.253956	0.831792	0.831792
686.6000	0.309	3471.811584	3471.811584	3471.811584	0.795744	0.795744
687.2000	0.307	3486.001087	3486.001087	3486.001087	0.770037	0.770037
687.8000	0.306	3480.633883	3480.633883	3480.633883	0.732028	0.732028
688.4000	0.307	3463.010996	3463.010996	3463.010996	0.709857	0.709857
689.0000	0.307	3446.566965	3446.566965	3446.566965	0.741598	0.741598
689.6000	0.306	3445.014126	3445.014126	3445.014126	0.786269	0.786269
690.2000	0.304	3452.909185	3452.909185	3452.909185	0.808594	0.808594
690.8000	0.302	3454.755172	3454.755172	3454.755172	0.823279	0.823279
691.4000	0.302	3440.355286	3440.355286	3440.355286	0.840636	0.840636
692.0000	0.302	3423.240439	3423.240439	3423.240439	0.858830	0.858830
692.6000	0.302	3419.515344	3419.515344	3419.515344	0.871674	0.871674
693.2000	0.300	3429.801154	3429.801154	3429.801154	0.873029	0.873029
693.8000	0.298	3433.370954	3433.370954	3433.370954	0.869779	0.869779
694.4000	0.297	3428.881647	3428.881647	3428.881647	0.870257	0.870257
695.0000	0.298	3411.196881	3411.196881	3411.196881	0.874371	0.874371
695.6000	0.298	3396.208532	3396.208532	3396.208532	0.882006	0.882006
696.2000	0.296	3396.824300	3396.824300	3396.824300	0.894954	0.894954
696.8000	0.294	3407.097411	3407.097411	3407.097411	0.909377	0.909377
697.4000	0.293	3411.628667	3411.628667	3411.628667	0.917284	0.917284
698.0000	0.293	3394.224483	3394.224483	3394.224483	0.917151	0.917151
698.6000	0.293	3375.457376	3375.457376	3375.457376	0.911054	0.911054
699.2000	0.292	3369.171860	3369.171860	3369.171860	0.902909	0.902909
699.8000	0.290	3375.268406	3375.268406	3375.268406	0.897121	0.897121
700.4000	0.289	3387.827613	3387.827613	3387.827613	0.897978	0.897978
701.0000	0.288	3378.424226	3378.424226	3378.424226	0.904114	0.904114
701.6000	0.288	3360.153971	3360.153971	3360.153971	0.908148	0.908148
702.2000	0.288	3341.455325	3341.455325	3341.455325	0.908997	0.908997
702.8000	0.288	3337.887410	3337.887410	3337.887410	0.909743	0.909743
703.4000	0.287	3335.511264	3335.511264	3335.511264	0.912295	0.912295
704.0000	0.286	3338.700991	3338.700991	3338.700991	0.914730	0.914730
704.6000	0.285	3333.193896	3333.193896	3333.193896	0.917524	0.917524
705.2000	0.284	3326.139176	3326.139176	3326.139176	0.920183	0.920183
705.8000	0.283	3317.945342	3317.945342	3317.945342	0.923049	0.923049
706.4000	0.283	3314.697000	3314.697000	3314.697000	0.924927	0.924927
707.0000	0.282	3314.076909	3314.076909	3314.076909	0.926600	0.926600
707.6000	0.281	3309.974278	3309.974278	3309.974278	0.929288	0.929288
708.2000	0.280	3303.516652	3303.516652	3303.516652	0.931212	0.931212
708.8000	0.279	3298.196574	3298.196574	3298.196574	0.933176	0.933176
709.4000	0.280	3278.500224	3278.500224	3278.500224	0.934799	0.934799
710.0000	0.280	3262.064826	3262.064826	3262.064826	0.935811	0.935811
710.6000	0.279	3257.584212	3257.584212	3257.584212	0.935468	0.935468
711.2000	0.277	3267.106099	3267.106099	3267.106099	0.935911	0.935911
711.8000	0.275	3280.180662	3280.180662	3280.180662	0.937295	0.937295
712.4000	0.274	3271.790557	3271.790557	3271.790557	0.937938	0.937938
713.0000	0.275	3251.860273	3251.860273	3251.860273	0.937335	0.937335
713.6000	0.275	3233.691479	3233.691479	3233.691479	0.935910	0.935910
714.2000	0.274	3223.222319	3223.222319	3223.222319	0.935470	0.935470
714.8000	0.273	3220.989928	3220.989928	3220.989928	0.932874	0.932874
715.4000	0.272	3223.856859	3223.856859	3223.856859	0.917235	0.917235
716.0000	0.271	3223.461041	3223.461041	3223.461041	0.892376	0.892376
716.6000	0.270	3217.469868	3217.469868	3217.469868	0.873658	0.873658
717.2000	0.270	3199.033983	3199.033983	3199.033983	0.854514	0.854514
717.8000	0.271	3178.641994	3178.641994	3178.641994	0.822420	0.822420
718.4000	0.270	3174.770131	3174.770131	3174.770131	0.788088	0.788088
719.0000	0.269	3177.786470	3177.786470	3177.786470	0.766793	0.766793
719.6000	0.267	3191.088196	3191.088196	3191.088196	0.769510	0.769510
720.2000	0.265	3186.417552	3186.417552	3186.417552	0.790128	0.790128
720.8000	0.265	3170.245297	3170.245297	3170.245297	0.804275	0.804275
721.4000	0.266	3147.519271	3147.519271	3147.519271	0.815547	0.815547
722.0000	0.265	3148.539323	3148.539323	3148.539323	0.841619	0.841619
722.6000	0.265	3142.874934	3142.874934	3142.874934	0.862376	0.862376
723.2000	0.264	3138.485471	3138.485471	3138.485471	0.855147	0.855147
723.8000	0.263	3131.789217	3131.789217	3131.789217	0.834599	0.834599
724.4000	0.262	3126.577933	3126.577933	3126.577933	0.816494	0.816494
725.0000	0.261	3128.284706	3128.284706	3128.284706	0.805914	0.805914
725.6000	0.260	3123.459609	3123.459609	3123.459609	0.804317	0.804317
726.2000	0.259	3114.657410	3114.657410	3114.657410	0.810372	0.810372
726.8000	0.258	3117.164771	3117.164771	3117.164771	0.819624	0.819624
727.4000	0.257	3111.734477	3111.734477	3111.734477	0.826420	0.826420
728.0000	0.257	3110.448515	3110.448515	3110.448515	0.826805	0.826805
728.6000	0.257	3092.470545	3092.470545	3092.470545	0.820973	0.820973
729.2000	0.257	3077.759972	3077.759972	3077.759972	0.817510	0.817510
729.8000	0.257	3064.613480	3064.613480	3064.613480	0.820333	0.820333
730.4000	0.256	3060.336939	3060.336939	3060.336939	0.826160	0.826160
731.0000	0.255	3055.455844	3055.455844	3055.455844	0.835665	0.835665
731.6000	0.254	3058.997750	3058.997750	3058.997750	0.851478	0.851478
732.2000	0.253	3053.634035	3053.634035	3053.634035	0.868471	0.868471
732.8000	0.252	3052.064396	3052.064396	3052.064396	0.881396	0.881396
733.4000	0.252	3034.205719	3034.205719	3034.205719	0.894588	0.894588
734.0000	0.252	3018.773311	3018.773311	3018.773311	0.909902	0.909902
734.6000	0.252	3011.641780	3011.641780	3011.641780	0.921572	0.921572
735.2000	0.252	3002.263234	3002.263234	3002.263234	0.926253	0.926253
735.8000	0.251	2994.444194	2994.444194	2994.444194	0.924271	0.924271
736.4000	0.249	2998.667565	2998.667565	2998.667565	0.921240	0.921240
737.0000	0.248	3001.622538	3001.622538	3001.622538	0.923203	0.923203
737.6000	0.248	2990.274677	2990.274677	2990.274677	0.925305	0.925305
738.2000	0.248	2976.633363	2976.633363	2976.633363	0.924506	0.924506
738.8000	0.248	2958.649815	2958.649815	2958.649815	0.929504	0.929504
739.4000	0.248	2949.903539	2949.903539	2949.903539	0.940491	0.940491
740.0000	0.246	2949.599498	2949.599498	2949.599498	0.945042	0.945042
740.6000	0.244	2971.892122	2971.892122	2971.892122	0.943609	0.943609
741.2000	0.243	2969.416399	2969.416399	2969.416399	0.945274	0.945274
741.8000	0.243	2954.923913	2954.923913	2954.923913	0.948752	0.948752
742.4000	0.243	2939.230725	2939.230725	2939.230725	0.950319	0.950319
743.0000	0.243	2924.070466	2924.070466	2924.070466	0.951918	0.951918
743.6000	0.242	2926.042586	2926.042586	2926.042586	0.953084	0.953084
744.2000	0.241	2921.836411	2921.836411	2921.836411	0.954418	0.954418
744.8000	0.240	2924.900886	2924.900886	2924.900886	0.955749	0.955749
745.4000	0.239	2917.457886	2917.457886	2917.457886	0.956901	0.956901
746.0000	0.238	2914.090540	2914.090540	2914.090540	0.957702	0.957702
746.6000	0.238	2904.963410	2904.963410	2904.963410	0.957672	0.957672
747.2000	0.239	2889.767953	2889.767953	2889.767953	0.956647	0.956647
747.8000	0.238	2878.158531	2878.158531	2878.158531	0.957112	0.957112
748.4000	0.238	2870.818282	2870.818282	2870.818282	0.958064	0.958064
749.0000	0.237	2871.607473	2871.607473	2871.607473	0.958627	0.958627
749.6000	0.235	2866.589719	2866.589719	2866.589719	0.958848	0.958848
750.2000	0.235	2868.202226	2868.202226	2868.202226	0.958788	0.958788
750.8000	0.234	2865.568108	2865.568108	2865.568108	0.958550	0.958550
751.4000	0.234	2853.206184	2853.206184	2853.206184	0.958782	0.958782
752.0000	0.234	2835.185900	2835.185900	2835.185900	0.959730	0.959730
752.6000	0.234	2828.191311	2828.191311	2828.191311	0.959454	0.959454
753.2000	0.233	2827.565089	2827.565089	2827.565089	0.958883	0.958883
753.8000	0.232	2821.125992	2821.125992	2821.125992	0.961594	0.961594
754.4000	0.231	2823.271635	2823.271635	2823.271635	0.963448	0.963448
755.0000	0.230	2823.657155	2823.657155	2823.657155	0.964976	0.964976
755.6000	0.229	2813.065824	2813.065824	2813.065824	0.965498	0.965498
756.2000	0.229	2809.402595	2809.402595	2809.402595	0.964333	0.964333
756.8000	0.229	2791.801357	2791.801357	2791.801357	0.960802	0.960802
757.4000	0.229	2781.732532	2781.732532	2781.732532	0.954225	0.954225
758.0000	0.230	2762.238505	2762.238505	2762.238505	0.927953	0.927953
758.6000	0.230	2750.408304	2750.408304	2750.408304	0.838882	0.838882
759.2000	0.229	2752.706012	2752.706012	2752.706012	0.721774	0.721774
759.8000	0.227	2758.422339	2758.422339	2758.422339	0.594872	0.594872
760.4000	0.225	2775.736040	2775.736040	2775.736040	0.471938	0.471938
761.0000	0.225	2763.930363	2763.930363	2763.930363	0.389198	0.389198
761.6000	0.225	2752.871009	2752.871009	2752.871009	0.378632	0.378632
762.2000	0.225	2739.807930	2739.807930	2739.807930	0.420818	0.420818
762.8000	0.224	2748.673812	2748.673812	2748.673812	0.476391	0.476391
763.4000	0.223	2742.217646	2742.217646	2742.217646	0.492574	0.492574
764.0000	0.222	2749.027479	2749.027479	2749.027479	0.480960	0.480960
764.6000	0.223	2736.568749	2736.568749	2736.568749	0.516116	0.516116
765.2000	0.223	2725.534035	2725.534035	2725.534035	0.591709	0.591709
765.8000	0.222	2719.541223	2719.541223	2719.541223	0.660123	0.660123
766.4000	0.221	2730.086067	2730.086067	2730.086067	0.721093	0.721093
767.0000	0.220	2723.726744	2723.726744	2723.726744	0.782959	0.782959
767.6000	0.220	2722.772044	2722.772044	2722.772044	0.835820	0.835820
768.2000	0.220	2711.039195	2711.039195	2711.039195	0.874447	0.874447
768.8000	0.220	2701.336524	2701.336524	2701.336524	0.904498	0.904498
769.4000	0.220	2701.619470	2701.619470	2701.619470	0.926736	0.926736
770.0000	0.219	2711.283068	2711.283068	2711.283068	0.938417	0.938417
770.6000	0.217	2713.486273	2713.486273	2713.486273	0.945724	0.945724
771.2000	0.216	2715.461472	2715.461472	2715.461472	0.955644	0.955644
771.8000	0.216	2713.049503	2713.049503	2713.049503	0.962858	0.962858
772.4000	0.216	2703.610741	2703.610741	2703.610741	0.963517	0.963517
773.0000	0.216	2701.523834	2701.523834	2701.523834	0.962421	0.962421
773.6000	0.216	2691.340208	2691.340208	2691.340208	0.962541	0.962541
774.2000	0.215	2687.598879	2687.598879	2687.598879	0.963625	0.963625
774.8000	0.214	2694.443086	2694.443086	2694.443086	0.964768	0.964768
775.4000	0.213	2703.188098	2703.188098	2703.188098	0.965020	0.965020
776.0000	0.212	2704.424035	2704.424035	2704.424035	0.964818	0.964818
776.6000	0.211	2702.508937	2702.508937	2702.508937	0.964798	0.964798
777.2000	0.211	2693.879215	2693.879215	2693.879215	0.964848	0.964848
777.8000	0.211	2682.724584	2682.724584	2682.724584	0.964844	0.964844
778.4000	0.211	2681.990784	2681.990784	2681.990784	0.964836	0.964836
779.0000	0.211	2675.855101	2675.855101	2675.855101	0.964835	0.964835
779.6000	0.210	2683.657827	2683.657827	2683.657827	0.964834	0.964834
780.2000	0.209	2691.148954	2691.148954	2691.148954	0.964834	0.964834
780.8000	0.208	2692.453495	2692.453495	2692.453495	0.964834	0.964834
781.4000	0.207	2690.806589	2690.806589	2690.806589	0.964835	0.964835
782.0000	0.207	2695.314829	2695.314829	2695.314829	0.964836	0.964836
782.6000	0.206	2683.881655	2683.881655	2683.881655	0.964837	0.964837
783.2000	0.207	2670.917735	2670.917735	2670.917735	0.964837	0.964837
783.8000	0.207	2655.346708	2655.346708	2655.346708	0.964837	0.964837
784.4000	0.207	2650.625025	2650.625025	2650.625025	0.964837	0.964837
785.0000	0.207	2648.498433	2648.498433	2648.498433	0.964717	0.964717
785.6000	0.206	2648.474342	2648.474342	2648.474342	0.963618	0.963618
786.2000	0.205	2649.298993	2649.298993	2649.298993	0.961449	0.961449
786.8000	0.204	2654.473580	2654.473580	2654.473580	0.960981	0.960981
787.4000	0.204	2640.573249	2640.573249	2640.573249	0.961301	0.961301
788.0000	0.204	2633.043485	2633.043485	2633.043485	0.955497	0.955497
788.6000	0.204	2633.816080	2633.816080	2633.816080	0.946050	0.946050
789.2000	0.203	2632.548770	2632.548770	2632.548770	0.942654	0.942654
789.8000	0.202	2636.114688	2636.114688	2636.114688	0.943529	0.943529
790.4000	0.201	2638.335079	2638.335079	2638.335079	0.942829	0.942829
791.0000	0.200	2648.614957	2648.614957	2648.614957	0.941183	0.941183
791.6000	0.200	2642.495995	2642.495995	2642.495995	0.940990	0.940990
792.2000	0.200	2639.174600	2639.174600	2639.174600	0.944789	0.944789
792.8000	0.200	2626.039827	2626.039827	2626.039827	0.951584	0.951584
793.4000	0.199	2621.083202	2621.083202	2621.083202	0.956456	0.956456
794.0000	0.198	2631.421785	2631.421785	2631.421785	0.957783	0.957783
794.6000	0.198	2633.347231	2633.347231	2633.347231	0.956222	0.956222
795.2000	0.198	2622.327262	2622.327262	2622.327262	0.952156	0.952156
795.8000	0.198	2618.114407	2618.114407	2618.114407	0.946345	0.946345
796.4000	0.197	2600.919455	2600.919455	2600.919455	0.941024	0.941024
797.0000	0.197	2610.832025	2610.832025	2610.832025	0.939084	0.939084
797.6000	0.196	2616.321410	2616.321410	2616.321410	0.943683	0.943683
798.2000	0.195	2616.407187	2616.407187	2616.407187	0.951393	0.951393
798.8000	0.195	2600.440610	2600.440610	2600.440610	0.953975	0.953975
799.4000	0.195	2599.210711	2599.210711	2599.210711	0.952683	0.952683
800.0000	0.195	2596.555584	2596.555584	2596.555584	0.951928	0.951928
800.6000	0.194	2597.950750	2597.950750	2597.950750	0.949064	0.949064
801.2000	0.193	2598.943243	2598.943243	2598.943243	0.942992	0.942992
801.8000	0.193	2596.864410	2596.864410	2596.864410	0.939995	0.939995
802.4000	0.193	2580.110849	2580.110849	2580.110849	0.941728	0.941728
803.0000	0.193	2579.942194	2579.942194	2579.942194	0.943349	0.943349
803.6000	0.192	2581.351860	2581.351860	2581.351860	0.944321	0.944321
804.2000	0.191	2582.713247	2582.713247	2582.713247	0.946924	0.946924
804.8000	0.190	2596.737697	2596.737697	2596.737697	0.951022	0.951022
805.4000	0.189	2595.618269	2595.618269	2595.618269	0.955406	0.955406
806.0000	0.189	2596.249732	2596.249732	2596.249732	0.958415	0.958415
806.6000	0.188	2595.227515	2595.227515	2595.227515	0.959112	0.959112
807.2000	0.188	2579.200365	2579.200365	2579.200365	0.957970	0.957970
807.8000	0.189	2574.299154	2574.299154	2574.299154	0.956724	0.956724
808.4000	0.189	2562.716226	2562.716226	2562.716226	0.957433	0.957433
809.0000	0.189	2551.367154	2551.367154	2551.367154	0.955865	0.955865
809.6000	0.188	2556.571383	2556.571383	2556.571383	0.947572	0.947572
810.2000	0.187	2554.407517	2554.407517	2554.407517	0.941376	0.941376
810.8000	0.186	2555.375385	2555.375385	2555.375385	0.941398	0.941398
811.4000	0.185	2564.975622	2564.975622	2564.975622	0.933086	0.933086
812.0000	0.184	2570.912147	2570.912147	2570.912147	0.914044	0.914044
812.6000	0.184	2562.321320	2562.321320	2562.321320	0.899121	0.899121
813.2000	0.184	2560.327678	2560.327678	2560.327678	0.885841	0.885841
813.8000	0.184	2546.605557	2546.605557	2546.605557	0.861872	0.861872
814.4000	0.184	2542.823523	2542.823523	2542.823523	0.834656	0.834656
815.0000	0.183	2553.966952	2553.966952	2553.966952	0.814632	0.814632
815.6000	0.182	2552.305520	2552.305520	2552.305520	0.797232	0.797232
816.2000	0.182	2541.332109	2541.332109	2541.332109	0.780589	0.780589
816.8000	0.182	2535.891230	2535.891230	2535.891230	0.772363	0.772363
817.4000	0.182	2528.001877	2528.001877	2528.001877	0.774741	0.774741
818.0000	0.181	2526.237487	2526.237487	2526.237487	0.783608	0.783608
818.6000	0.180	2538.038854	2538.038854	2538.038854	0.793348	0.793348
819.2000	0.179	2522.189122	2522.189122	2522.189122	0.801204	0.801204
819.8000	0.179	2526.040895	2526.040895	2526.040895	0.820377	0.820377
820.4000	0.180	2509.865037	2509.865037	2509.865037	0.854616	0.854616
821.0000	0.179	2504.945209	2504.945209	2504.945209	0.874947	0.874947
821.6000	0.178	2523.577885	2523.577885	2523.577885	0.863138	0.863138
822.2000	0.177	2510.764244	2510.764244	2510.764244	0.822480	0.822480
822.8000	0.177	2511.452478	2511.452478	2511.452478	0.775839	0.775839
823.4000	0.177	2504.630180	2504.630180	2504.630180	0.755428	0.755428
824.0000	0.177	2485.960862	2485.960862	2485.960862	0.768217	0.768217
824.6000	0.176	2504.375133	2504.375133	2504.375133	0.807385	0.807385
825.2000	0.175	2500.655762	2500.655762	2500.655762	0.854118	0.854118
825.8000	0.175	2497.068643	2497.068643	2497.068643	0.888492	0.888492
826.4000	0.175	2486.268977	2486.268977	2486.268977	0.894003	0.894003
827.0000	0.175	2471.974446	2471.974446	2471.974446	0.876840	0.876840
827.6000	0.174	2479.984814	2479.984814	2479.984814	0.862912	0.862912
828.2000	0.173	2479.112498	2479.112498	2479.112498	0.855471	0.855471
828.8000	0.173	2482.582485	2482.582485	2482.582485	0.847882	0.847882
829.4000	0.172	2481.032002	2481.032002	2481.032002	0.848084	0.848084
830.0000	0.172	2464.474014	2464.474014	2464.474014	0.860761	0.860761
830.6000	0.173	2445.765352	2445.765352	2445.765352	0.872231	0.872231
831.2000	0.173	2441.928511	2441.928511	2441.928511	0.875635	0.875635
831.8000	0.173	2431.750098	2431.750098	2431.750098	0.876640	0.876640
832.4000	0.172	2428.433858	2428.433858	2428.433858	0.876065	0.876065
833.0000	0.171	2432.702512	2432.702512	2432.702512	0.872537	0.872537
833.6000	0.170	2439.289130	2439.289130	2439.289130	0.879028	0.879028
834.2000	0.170	2423.249008	2423.249008	2423.249008	0.904484	0.904484
834.8000	0.170	2418.001251	2418.001251	2418.001251	0.923678	0.923678
835.4000	0.170	2411.592287	2411.592287	2411.592287	0.923145	0.923145
836.0000	0.169	2410.045162	2410.045162	2410.045162	0.923848	0.923848
836.6000	0.168	2411.027443	2411.027443	2411.027443	0.933404	0.933404
837.2000	0.168	2417.198852	2417.198852	2417.198852	0.942630	0.942630
837.8000	0.168	2402.463683	2402.463683	2402.463683	0.948334	0.948334
838.4000	0.168	2384.165539	2384.165539	2384.165539	0.951295	0.951295
839.0000	0.168	2375.847735	2375.847735	2375.847735	0.952878	0.952878
839.6000	0.168	2366.475537	2366.475537	2366.475537	0.954134	0.954134
840.2000	0.168	2357.686522	2357.686522	2357.686522	0.954910	0.954910
840.8000	0.167	2356.169034	2356.169034	2356.169034	0.955390	0.955390
841.4000	0.166	2357.065239	2357.065239	2357.065239	0.956449	0.956449
842.0000	0.166	2363.238751	2363.238751	2363.238751	0.958336	0.958336
842.6000	0.166	2347.276171	2347.276171	2347.276171	0.960719	0.960719
843.2000	0.166	2338.759590	2338.759590	2338.759590	0.962875	0.962875
843.8000	0.166	2327.080347	2327.080347	2327.080347	0.964395	0.964395
844.4000	0.166	2311.002788	2311.002788	2311.002788	0.966558	0.966558
845.0000	0.166	2302.489052	2302.489052	2302.489052	0.969666	0.969666
845.6000	0.165	2301.611152	2301.611152	2301.611152	0.971543	0.971543
846.2000	0.164	2313.634583	2313.634583	2313.634583	0.971863	0.971863
846.8000	0.163	2304.791307	2304.791307	2304.791307	0.972369	0.972369
847.4000	0.164	2288.261994	2288.261994	2288.261994	0.972943	0.972943
848.0000	0.164	2282.138569	2282.138569	2282.138569	0.972600	0.972600
848.6000	0.163	2280.519371	2280.519371	2280.519371	0.971843	0.971843
849.2000	0.162	2279.120403	2279.120403	2279.120403	0.971294	0.971294
849.8000	0.161	2277.067749	2277.067749	2277.067749	0.970798	0.970798
850.4000	0.161	2267.382514	2267.382514	2267.382514	0.970424	0.970424
851.0000	0.161	2250.676336	2250.676336	2250.676336	0.970096	0.970096
851.6000	0.161	2238.001431	2238.001431	2238.001431	0.969918	0.969918
852.2000	0.162	2229.622564	2229.622564	2229.622564	0.970177	0.970177
852.8000	0.161	2215.306306	2215.306306	2215.306306	0.970945	0.970945
853.4000	0.161	2210.210349	2210.210349	2210.210349	0.971632	0.971632
854.0000	0.160	2209.376775	2209.376775	2209.376775	0.971987	0.971987
854.6000	0.159	2205.566436	2205.566436	2205.566436	0.971990	0.971990
855.2000	0.159	2195.166165	2195.166165	2195.166165	0.971926	0.971926
855.8000	0.159	2190.482888	2190.482888	2190.482888	0.972483	0.972483
856.4000	0.159	2176.467304	2176.467304	2176.467304	0.973293	0.973293
857.0000	0.158	2173.314527	2173.314527	2173.314527	0.973869	0.973869
857.6000	0.157	2172.191536	2172.191536	2172.191536	0.974504	0.974504
858.2000	0.157	2166.136302	2166.136302	2166.136302	0.975160	0.975160
858.8000	0.156	2152.565409	2152.565409	2152.565409	0.975796	0.975796
859.4000	0.157	2134.816409	2134.816409	2134.816409	0.976372	0.976372
860.0000	0.157	2115.430990	2115.430990	2115.430990	0.976848	0.976848
860.6000	0.157	2104.912298	2104.912298	2104.912298	0.977449	0.977449
861.2000	0.157	2104.327363	2104.327363	2104.327363	0.977132	0.977132
861.8000	0.156	2099.862003	2099.862003	2099.862003	0.976716	0.976716
862.4000	0.155	2098.136747	2098.136747	2098.136747	0.977023	0.977023
863.0000	0.154	2090.101500	2090.101500	2090.101500	0.978217	0.978217
863.6000	0.154	2074.347095	2074.347095	2074.347095	0.979169	0.979169
864.2000	0.155	2069.558237	2069.558237	2069.558237	0.979171	0.979171
864.8000	0.154	2051.172318	2051.172318	2051.172318	0.978990	0.978990
865.4000	0.153	2062.176539	2062.176539	2062.176539	0.979021	0.979021
866.0000	0.152	2056.617542	2056.617542	2056.617542	0.979056	0.979056
866.6000	0.152	2046.411312	2046.411312	2046.411312	0.979043	0.979043
867.2000	0.152	2030.339469	2030.339469	2030.339469	0.979039	0.979039
867.8000	0.152	2010.828163	2010.828163	2010.828163	0.979037	0.979037
868.4000	0.152	2006.029641	2006.029641	2006.029641	0.979037	0.979037
869.0000	0.152	1980.214071	1980.214071	1980.214071	0.979038	0.979038
869.6000	0.152	1986.804337	1986.804337	1986.804337	0.979039	0.979039
870.2000	0.151	1981.426345	1981.426345	1981.426345	0.979040	0.979040
870.8000	0.150	1977.908711	1977.908711	1977.908711	0.979041	0.979041
871.4000	0.150	1967.392108	1967.392108	1967.392108	0.979042	0.979042
872.0000	0.150	1951.235917	1951.235917	1951.235917	0.979041	0.979041
872.6000	0.150	1932.538692	1932.538692	1932.538692	0.979041	0.979041
873.2000	0.150	1916.052818	1916.052818	1916.052818	0.979041	0.979041
873.8000	0.150	1914.356128	1914.356128	1914.356128	0.979040	0.979040
874.4000	0.150	1903.692188	1903.692188	1903.692188	0.979043	0.979043
875.0000	0.149	1900.402664	1900.402664	1900.402664	0.979043	0.979043
875.6000	0.148	1896.130939	1896.130939	1896.130939	0.979033	0.979033
876.2000	0.147	1886.045198	1886.045198	1886.045198	0.979037	0.979037
876.8000	0.147	1870.385328	1870.385328	1870.385328	0.979080	0.979080
877.4000	0.148	1852.421745	1852.421745	1852.421745	0.979025	0.979025
878.0000	0.148	1848.002195	1848.002195	1848.002195	0.978642	0.978642
878.6000	0.148	1830.651000	1830.651000	1830.651000	0.977891	0.977891
879.2000	0.147	1821.115781	1821.115781	1821.115781	0.977432	0.977432
879.8000	0.147	1816.199016	1816.199016	1816.199016	0.976952	0.976952
880.4000	0.146	1812.260898	1812.260898	1812.260898	0.976512	0.976512
881.0000	0.145	1801.389048	1801.389048	1801.389048	0.976174	0.976174
881.6000	0.145	1800.809771	1800.809771	1800.809771	0.975998	0.975998
882.2000	0.145	1781.762779	1781.762779	1781.762779	0.976464	0.976464
882.8000	0.146	1763.158384	1763.158384	1763.158384	0.977056	0.977056
883.4000	0.146	1746.503978	1746.503978	1746.503978	0.976907	0.976907
884.0000	0.145	1735.902183	1735.902183	1735.902183	0.977367	0.977367
884.6000	0.144	1728.560466	1728.560466	1728.560466	0.978150	0.978150
885.2000	0.143	1737.105331	1737.105331	1737.105331	0.976906	0.976906
885.8000	0.143	1729.772925	1729.772925	1729.772925	0.974267	0.974267
886.4000	0.143	1713.703687	1713.703687	1713.703687	0.972570	0.972570
887.0000	0.143	1695.500940	1695.500940	1695.500940	0.971900	0.971900
887.6000	0.143	1679.125551	1679.125551	1679.125551	0.971723	0.971723
888.2000	0.143	1661.880573	1661.880573	1661.880573	0.972152	0.972152
888.8000	0.143	1655.476878	1655.476878	1655.476878	0.973265	0.973265
889.4000	0.143	1643.872312	1643.872312	1643.872312	0.974851	0.974851
890.0000	0.143	1626.521493	1626.521493	1626.521493	0.975972	0.975972
890.6000	0.143	1615.418472	1615.418472	1615.418472	0.975021	0.975021
891.2000	0.142	1609.092870	1609.092870	1609.092870	0.970090	0.970090
891.8000	0.141	1606.677105	1606.677105	1606.677105	0.961041	0.961041
892.4000	0.141	1608.563823	1608.563823	1608.563823	0.955891	0.955891
893.0000	0.141	1590.246913	1590.246913	1590.246913	0.955581	0.955581
893.6000	0.141	1571.459919	1571.459919	1571.459919	0.940843	0.940843
894.2000	0.141	1552.726478	1552.726478	1552.726478	0.911700	0.911700
894.8000	0.141	1535.104874	1535.104874	1535.104874	0.893108	0.893108
895.4000	0.141	1538.899681	1538.899681	1538.899681	0.879904	0.879904
896.0000	0.140	1531.394197	1531.394197	1531.394197	0.851016	0.851016
896.6000	0.139	1525.304714	1525.304714	1525.304714	0.822684	0.822684
897.2000	0.138	1514.726703	1514.726703	1514.726703	0.810951	0.810951
897.8000	0.138	1496.603469	1496.603469	1496.603469	0.786767	0.786767
898.4000	0.139	1490.002697	1490.002697	1490.002697	0.741199	0.741199
899.0000	0.139	1474.866101	1474.866101	1474.866101	0.712589	0.712589
899.6000	0.139	1457.245364	1457.245364	1457.245364	0.708462	0.708462
900.2000	0.138	1445.456551	1445.456551	1445.456551	0.706276	0.706276
900.8000	0.138	1452.697157	1452.697157	1452.697157	0.712702	0.712702
901.4000	0.137	1443.881959	1443.881959	1443.881959	0.742670	0.742670
902.0000	0.136	1434.196416	1434.196416	1434.196416	0.776853	0.776853
902.6000	0.136	1416.018279	1416.018279	1416.018279	0.798101	0.798101
903.2000	0.136	1410.523478	1410.523478	1410.523478	0.816464	0.816464
903.8000	0.136	1394.215548	1394.215548	1394.215548	0.839502	0.839502
904.4000	0.137	1376.053026	1376.053026	1376.053026	0.865703	0.865703
905.0000	0.136	1361.705598	1361.705598	1361.705598	0.880446	0.880446
905.6000	0.135	1357.242895	1357.242895	1357.242895	0.865400	0.865400
906.2000	0.134	1362.995188	1362.995188	1362.995188	0.835763	0.835763
906.8000	0.134	1348.087658	1348.087658	1348.087658	0.812346	0.812346
907.4000	0.134	1344.745055	1344.745055	1344.745055	0.791318	0.791318
908.0000	0.134	1330.702347	1330.702347	1330.702347	0.769855	0.769855
908.6000	0.134	1311.567426	1311.567426	1311.567426	0.755474	0.755474
909.2000	0.134	1294.137541	1294.137541	1294.137541	0.752579	0.752579
909.8000	0.134	1280.475322	1280.475322	1280.475322	0.760864	0.760864
910.4000	0.134	1278.337756	1278.337756	1278.337756	0.773800	0.773800
911.0000	0.134	1257.413721	1257.413721	1257.413721	0.781946	0.781946
911.6000	0.134	1250.647430	1250.647430	1250.647430	0.777557	0.777557
912.2000	0.134	1238.656312	1238.656312	1238.656312	0.760105	0.760105
912.8000	0.134	1219.470664	1219.470664	1219.470664	0.745015	0.745015
913.4000	0.134	1223.385827	1223.385827	1223.385827	0.740270	0.740270
914.0000	0.133	1214.222510	1214.222510	1214.222510	0.741047	0.741047
914.6000	0.132	1205.432513	1205.432513	1205.432513	0.744070	0.744070
915.2000	0.131	1189.839066	1189.839066	1189.839066	0.747893	0.747893
915.8000	0.132	1181.520178	1181.520178	1181.520178	0.751263	0.751263
916.4000	0.132	1170.454569	1170.454569	1170.454569	0.754106	0.754106
917.0000	0.132	1147.909069	1147.909069	1147.909069	0.760088	0.760088
917.6000	0.132	1146.820616	1146.820616	1146.820616	0.771936	0.771936
918.2000	0.131	1134.116059	1134.116059	1134.116059	0.789174	0.789174
918.8000	0.131	1126.396481	1126.396481	1126.396481	0.809358	0.809358
919.4000	0.130	1138.090873	1138.090873	1138.090873	0.828860	0.828860
920.0000	0.129	1124.781860	1124.781860	1124.781860	0.848473	0.848473
920.6000	0.129	1106.415718	1106.415718	1106.415718	0.869105	0.869105
921.2000	0.129	1095.915612	1095.915612	1095.915612	0.880187	0.880187
921.8000	0.130	1073.665720	1073.665720	1073.665720	0.875271	0.875271
922.4000	0.130	1072.055104	1072.055104	1072.055104	0.866609	0.866609
923.0000	0.129	1072.959829	1072.959829	1072.959829	0.861618	0.861618
923.6000	0.128	1048.119586	1048.119586	1048.119586	0.857273	0.857273
924.2000	0.127	1062.692082	1062.692082	1062.692082	0.851348	0.851348
924.8000	0.127	1046.387515	1046.387515	1046.387515	0.844134	0.844134
925.4000	0.127	1027.575128	1027.575128	1027.575128	0.845052	0.845052
926.0000	0.127	1032.827248	1032.827248	1032.827248	0.856463	0.856463
926.6000	0.127	999.242411	999.242411	999.242411	0.842917	0.842917
927.2000	0.127	997.897491	997.897491	997.897491	0.796006	0.796006
927.8000	0.127	995.325976	995.325976	995.325976	0.770597	0.770597
928.4000	0.127	973.982719	973.982719	973.982719	0.762315	0.762315
929.0000	0.127	961.889797	961.889797	961.889797	0.706688	0.706688
929.6000	0.127	971.342983	971.342983	971.342983	0.625431	0.625431
930.2000	0.126	951.223268	951.223268	951.223268	0.576773	0.576773
930.8000	0.125	947.422401	947.422401	947.422401	0.543598	0.543598
931.4000	0.125	952.703205	952.703205	952.703205	0.497673	0.497673
932.0000	0.125	917.269291	917.269291	917.269291	0.442900	0.442900
932.6000	0.125	917.995454	917.995454	917.995454	0.385568	0.385568
933.2000	0.125	919.556902	919.556902	919.556902	0.328737	0.328737
933.8000	0.125	901.254470	901.254470	901.254470	0.285154	0.285154
934.4000	0.125	882.751203	882.751203	882.751203	0.272408	0.272408
935.0000	0.125	884.691080	884.691080	884.691080	0.286635	0.286635
935.6000	0.125	886.765847	886.765847	886.765847	0.311153	0.311153
936.2000	0.125	852.094899	852.094899	852.094899	0.317107	0.317107
936.8000	0.125	853.910089	853.910089	853.910089	0.301835	0.301835
937.4000	0.125	849.053402	849.053402	849.053402	0.316530	0.316530
938.0000	0.125	826.784261	826.784261	826.784261	0.364910	0.364910
938.6000	0.125	816.892168	816.892168	816.892168	0.398855	0.398855
939.2000	0.125	822.228460	822.228460	822.228460	0.428872	0.428872
939.8000	0.124	813.774398	813.774398	813.774398	0.488293	0.488293
940.4000	0.123	800.048220	800.048220	800.048220	0.538802	0.538802
941.0000	0.122	803.241076	803.241076	803.241076	0.540393	0.540393
941.6000	0.122	805.015237	805.015237	805.015237	0.510570	0.510570
942.2000	0.123	791.416999	791.416999	791.416999	0.471429	0.471429
942.8000	0.123	764.081618	764.081618	764.081618	0.437463	0.437463
943.4000	0.123	766.622876	766.622876	766.622876	0.415790	0.415790
944.0000	0.123	772.165355	772.165355	772.165355	0.407475	0.407475
944.6000	0.122	744.064938	744.064938	744.064938	0.409714	0.409714
945.2000	0.121	746.693726	746.693726	746.693726	0.417458	0.417458
945.8000	0.120	749.952979	749.952979	749.952979	0.423492	0.423492
946.4000	0.120	753.029687	753.029687	753.029687	0.423073	0.423073
947.0000	0.120	736.650658	736.650658	736.650658	0.417775	0.417775
947.6000	0.121	710.974875	710.974875	710.974875	0.419686	0.419686
948.2000	0.121	714.572216	714.572216	714.572216	0.447763	0.447763
948.8000	0.120	714.530313	714.530313	714.530313	0.477759	0.477759
949.4000	0.120	721.570396	721.570396	721.570396	0.471899	0.471899
950.0000	0.119	690.478190	690.478190	690.478190	0.464641	0.464641
950.6000	0.118	696.310654	696.310654	696.310654	0.490727	0.490727
951.2000	0.118	695.104794	695.104794	695.104794	0.518776	0.518776
951.8000	0.118	698.421859	698.421859	698.421859	0.520085	0.520085
952.4000	0.118	673.311404	673.311404	673.311404	0.489023	0.489023
953.0000	0.118	657.695232	657.695232	657.695232	0.454334	0.454334
953.6000	0.118	660.445432	660.445432	660.445432	0.463717	0.463717
954.2000	0.118	660.465709	660.465709	660.465709	0.499826	0.499826
954.8000	0.118	659.402836	659.402836	659.402836	0.523265	0.523265
955.4000	0.118	637.305877	637.305877	637.305877	0.528246	0.528246
956.0000	0.118	623.152528	623.152528	623.152528	0.523508	0.523508
956.6000	0.118	625.068583	625.068583	625.068583	0.529900	0.529900
957.2000	0.118	626.975716	626.975716	626.975716	0.545011	0.545011
957.8000	0.117	633.619949	633.619949	633.619949	0.541092	0.541092
958.4000	0.116	621.574142	621.574142	621.574142	0.523902	0.523902
959.0000	0.116	603.645762	603.645762	603.645762	0.517223	0.517223
959.6000	0.116	603.966453	603.966453	603.966453	0.520690	0.520690
960.2000	0.116	602.372098	602.372098	602.372098	0.529973	0.529973
960.8000	0.116	603.557827	603.557827	603.557827	0.553472	0.553472
961.4000	0.116	594.089066	594.089066	594.089066	0.589376	0.589376
962.0000	0.116	571.239414	571.239414	571.239414	0.617376	0.617376
962.6000	0.116	567.540900	567.540900	567.540900	0.632514	0.632514
963.2000	0.116	567.805469	567.805469	567.805469	0.643629	0.643629
963.8000	0.116	566.919520	566.919520	566.919520	0.651886	0.651886
964.4000	0.116	566.995954	566.995954	566.995954	0.655670	0.655670
965.0000	0.116	562.851583	562.851583	562.851583	0.658033	0.658033
965.6000	0.115	543.035504	543.035504	543.035504	0.663417	0.663417
966.2000	0.114	539.434854	539.434854	539.434854	0.676601	0.676601
966.8000	0.113	543.752212	543.752212	543.752212	0.699853	0.699853
967.4000	0.113	544.150093	544.150093	544.150093	0.732174	0.732174
968.0000	0.113	543.429231	543.429231	543.429231	0.769512	0.769512
968.6000	0.114	541.278299	541.278299	541.278299	0.805776	0.805776
969.2000	0.114	518.691395	518.691395	518.691395	0.834061	0.834061
969.8000	0.114	505.836744	505.836744	505.836744	0.850008	0.850008
970.4000	0.114	506.920428	506.920428	506.920428	0.857640	0.857640
971.0000	0.114	506.096866	506.096866	506.096866	0.860898	0.860898
971.6000	0.113	507.628871	507.628871	507.628871	0.860873	0.860873
972.2000	0.113	511.175420	511.175420	511.175420	0.854424	0.854424
972.8000	0.112	514.854881	514.854881	514.854881	0.836355	0.836355
973.4000	0.111	495.170874	495.170874	495.170874	0.814183	0.814183
974.0000	0.111	480.712467	480.712467	480.712467	0.798294	0.798294
974.6000	0.111	481.628391	481.628391	481.628391	0.784313	0.784313
975.2000	0.111	479.981233	479.981233	479.981233	0.771776	0.771776
975.8000	0.112	479.779849	479.779849	479.779849	0.776947	0.776947
976.4000	0.111	480.771812	480.771812	480.771812	0.799794	0.799794
977.0000	0.110	484.503667	484.503667	484.503667	0.819019	0.819019
977.6000	0.110	466.929520	466.929520	466.929520	0.829456	0.829456
978.2000	0.109	452.772061	452.772061	452.772061	0.836762	0.836762
978.8000	0.109	454.932192	454.932192	454.932192	0.840098	0.840098
979.4000	0.109	453.754228	453.754228	453.754228	0.839831	0.839831
980.0000	0.109	453.337087	453.337087	453.337087	0.847607	0.847607
980.6000	0.109	453.264295	453.264295	453.264295	0.866764	0.866764
981.2000	0.109	453.586852	453.586852	453.586852	0.883736	0.883736
981.8000	0.109	453.992413	453.992413	453.992413	0.893947	0.893947
982.4000	0.109	451.650013	451.650013	451.650013	0.902232	0.902232
983.0000	0.109	427.175195	427.175195	427.175195	0.909846	0.909846
983.6000	0.109	413.952970	413.952970	413.952970	0.916398	0.916398
984.2000	0.109	415.808596	415.808596	415.808596	0.923191	0.923191
984.8000	0.109	417.470770	417.470770	417.470770	0.931142	0.931142
985.4000	0.108	421.197050	421.197050	421.197050	0.939235	0.939235
986.0000	0.107	424.585356	424.585356	424.585356	0.946818	0.946818
986.6000	0.107	425.877507	425.877507	425.877507	0.953938	0.953938
987.2000	0.107	426.837204	426.837204	426.837204	0.959274	0.959274
987.8000	0.107	417.646954	417.646954	417.646954	0.961233	0.961233
988.4000	0.107	405.744500	405.744500	405.744500	0.962758	0.962758
989.0000	0.107	393.370705	393.370705	393.370705	0.966599	0.966599
989.6000	0.107	386.044726	386.044726	386.044726	0.969332	0.969332
990.2000	0.107	387.270207	387.270207	387.270207	0.969147	0.969147
990.8000	0.107	387.047803	387.047803	387.047803	0.969010	0.969010
991.4000	0.107	386.423329	386.423329	386.423329	0.969939	0.969939
992.0000	0.107	385.980813	385.980813	385.980813	0.970793	0.970793
992.6000	0.107	386.954039	386.954039	386.954039	0.971873	0.971873
993.2000	0.106	389.320689	389.320689	389.320689	0.973971	0.973971
993.8000	0.105	394.782347	394.782347	394.782347	0.976411	0.976411
994.4000	0.104	380.277441	380.277441	380.277441	0.978314	0.978314
995.0000	0.104	357.412808	357.412808	357.412808	0.979126	0.979126
995.6000	0.104	356.762078	356.762078	356.762078	0.979300	0.979300
996.2000	0.105	356.025354	356.025354	356.025354	0.979433	0.979433
996.8000	0.105	356.150809	356.150809	356.150809	0.979542	0.979542
997.4000	0.104	356.282070	356.282070	356.282070	0.979647	0.979647
998.0000	0.104	356.379517	356.379517	356.379517	0.979766	0.979766
998.6000	0.104	356.361303	356.361303	356.361303	0.979917	0.979917
999.2000	0.104	356.297307	356.297307	356.297307	0.980331	0.980331
999.8000	0.104	356.242568	356.242568	356.242568	0.981200	0.981200
1000.4000	0.104	356.256980	356.256980	356.256980	0.980277	0.980277
1001.0000	0.104	356.367748	356.367748	356.367748	0.977696	0.977696
1001.6000	0.104	356.620596	356.620596	356.620596	0.975693	0.975693
1002.2000	0.104	356.006855	356.006855	356.006855	0.974987	0.974987
1002.8000	0.105	357.341614	357.341614	357.341614	0.975488	0.975488
1003.4000	0.105	340.501796	340.501796	340.501796	0.977457	0.977457
1004.0000	0.104	317.896978	317.896978	317.896978	0.980541	0.980541
1004.6000	0.104	320.051618	320.051618	320.051618	0.982658	0.982658
1005.2000	0.103	322.783825	322.783825	322.783825	0.983084	0.983084
1005.8000	0.102	324.861945	324.861945	324.861945	0.983189	0.983189
1006.4000	0.102	325.098302	325.098302	325.098302	0.983171	0.983171
1007.0000	0.102	324.566760	324.566760	324.566760	0.982371	0.982371
1007.6000	0.102	324.155076	324.155076	324.155076	0.980996	0.980996
1008.2000	0.102	324.146726	324.146726	324.146726	0.979433	0.979433
1008.8000	0.102	324.349505	324.349505	324.349505	0.977416	0.977416
1009.4000	0.102	324.567782	324.567782	324.567782	0.975388	0.975388
1010.0000	0.102	324.571140	324.571140	324.571140	0.975270	0.975270
1010.6000	0.102	324.362193	324.362193	324.362193	0.977286	0.977286
1011.2000	0.102	323.112608	323.112608	323.112608	0.979834	0.979834
1011.8000	0.102	325.917325	325.917325	325.917325	0.981970	0.981970
1012.4000	0.102	308.823967	308.823967	308.823967	0.983327	0.983327
1013.0000	0.101	308.182427	308.182427	308.182427	0.984251	0.984251
1013.6000	0.100	311.215006	311.215006	311.215006	0.984993	0.984993
1014.2000	0.100	308.867625	308.867625	308.867625	0.985018	0.985018
1014.8000	0.100	289.257120	289.257120	289.257120	0.984356	0.984356
1015.4000	0.100	291.496610	291.496610	291.496610	0.983945	0.983945
1016.0000	0.100	290.651719	290.651719	290.651719	0.984059	0.984059
1016.6000	0.100	290.911723	290.911723	290.911723	0.984445	0.984445
1017.2000	0.100	290.998850	290.998850	290.998850	0.985164	0.985164
1017.8000	0.100	291.011192	291.011192	291.011192	0.986090	0.986090
1018.4000	0.100	290.976546	290.976546	290.976546	0.985907	0.985907
1019.0000	0.100	290.962952	290.962952	290.962952	0.984135	0.984135
1019.6000	0.100	290.972113	290.972113	290.972113	0.982347	0.982347
1020.2000	0.100	290.968249	290.968249	290.968249	0.981859	0.981859
1020.8000	0.100	290.933880	290.933880	290.933880	0.983264	0.983264
1021.4000	0.100	290.923264	290.923264	290.923264	0.985052	0.985052
1022.0000	0.100	291.006895	291.006895	291.006895	0.985053	0.985053
1022.6000	0.100	291.142347	291.142347	291.142347	0.983948	0.983948
1023.2000	0.100	291.095829	291.095829	291.095829	0.983112	0.983112
1023.8000	0.100	290.657857	290.657857	290.657857	0.983346	0.983346
1024.4000	0.100	290.256857	290.256857	290.256857	0.984588	0.984588
1025.0000	0.100	290.811525	290.811525	290.811525	0.985707	0.985707
1025.6000	0.099	292.990075	292.990075	292.990075	0.986141	0.986141
1026.2000	0.098	295.892252	295.892252	295.892252	0.985882	0.985882
1026.8000	0.098	297.997640	297.997640	297.997640	0.985104	0.985104
1027.4000	0.097	298.426701	298.426701	298.426701	0.984225	0.984225
1028.0000	0.098	297.950519	297.950519	297.950519	0.984270	0.984270
1028.6000	0.098	297.771180	297.771180	297.771180	0.985503	0.985503
1029.2000	0.098	297.197413	297.197413	297.197413	0.986481	0.986481
1029.8000	0.098	300.034536	300.034536	300.034536	0.986933	0.986933
1030.4000	0.098	280.807339	280.807339	280.807339	0.987323	0.987323
1031.0000	0.098	275.761492	275.761492	275.761492	0.987608	0.987608
1031.6000	0.098	276.945023	276.945023	276.945023	0.987927	0.987927
1032.2000	0.097	280.027720	280.027720	280.027720	0.988257	0.988257
1032.8000	0.096	276.664412	276.664412	276.664412	0.988578	0.988578
1033.4000	0.095	260.252856	260.252856	260.252856	0.988868	0.988868
1034.0000	0.095	263.276137	263.276137	263.276137	0.989106	0.989106
1034.6000	0.095	262.164937	262.164937	262.164937	0.989389	0.989389
1035.2000	0.095	261.968760	261.968760	261.968760	0.989231	0.989231
1035.8000	0.095	261.975891	261.975891	261.975891	0.989133	0.989133
1036.4000	0.095	262.109894	262.109894	262.109894	0.989187	0.989187
1037.0000	0.095	262.160633	262.160633	262.160633	0.989195	0.989195
1037.6000	0.095	262.137957	262.137957	262.137957	0.989188	0.989188
1038.2000	0.095	262.110636	262.110636	262.110636	0.989199	0.989199
1038.8000	0.095	262.113455	262.113455	262.113455	0.989158	0.989158
1039.4000	0.095	262.119651	262.119651	262.119651	0.989143	0.989143
1040.0000	0.095	262.098130	262.098130	262.098130	0.989351	0.989351
1040.6000	0.095	262.069629	262.069629	262.069629	0.989253	0.989253
1041.2000	0.095	262.100236	262.100236	262.100236	0.989037	0.989037
1041.8000	0.095	262.226945	262.226945	262.226945	0.988828	0.988828
1042.4000	0.095	262.290426	262.290426	262.290426	0.988587	0.988587
1043.0000	0.095	262.054514	262.054514	262.054514	0.988325	0.988325
1043.6000	0.096	261.558966	261.558966	261.558966	0.988057	0.988057
1044.2000	0.096	261.562728	261.562728	261.562728	0.987793	0.987793
1044.8000	0.095	262.915858	262.915858	262.915858	0.987547	0.987547
1045.4000	0.094	265.509943	265.509943	265.509943	0.987331	0.987331
1046.0000	0.093	268.032084	268.032084	268.032084	0.987156	0.987156
1046.6000	0.093	269.164498	269.164498	269.164498	0.986949	0.986949
1047.2000	0.093	269.012621	269.012621	269.012621	0.987211	0.987211
1047.8000	0.093	268.496641	268.496641	268.496641	0.987275	0.987275
1048.4000	0.093	268.328534	268.328534	268.328534	0.986974	0.986974
1049.0000	0.093	268.426213	268.426213	268.426213	0.986370	0.986370
1049.6000	0.093	268.524761	268.524761	268.524761	0.985712	0.985712
1050.2000	0.093	268.498847	268.498847	268.498847	0.985177	0.985177
1050.8000	0.093	268.572870	268.572870	268.572870	0.984910	0.984910
1051.4000	0.093	268.100337	268.100337	268.100337	0.985194	0.985194
1052.0000	0.093	270.920109	270.920109	270.920109	0.985717	0.985717
1052.6000	0.093	253.859125	253.859125	253.859125	0.984961	0.984961
1053.2000	0.093	245.169890	245.169890	245.169890	0.984314	0.984314
1053.8000	0.093	246.115662	246.115662	246.115662	0.983509	0.983509
1054.4000	0.093	246.975497	246.975497	246.975497	0.982594	0.982594
1055.0000	0.092	249.283426	249.283426	249.283426	0.981623	0.981623
1055.6000	0.091	251.866890	251.866890	251.866890	0.980645	0.980645
1056.2000	0.091	253.322065	253.322065	253.322065	0.979712	0.979712
1056.8000	0.091	253.381982	253.381982	253.381982	0.978415	0.978415
1057.4000	0.091	252.885582	252.885582	252.885582	0.976513	0.976513
1058.0000	0.091	252.627990	252.627990	252.627990	0.975756	0.975756
1058.6000	0.091	252.690457	252.690457	252.690457	0.975261	0.975261
1059.2000	0.091	252.835498	252.835498	252.835498	0.974219	0.974219
1059.8000	0.091	252.511268	252.511268	252.511268	0.973049	0.973049
1060.4000	0.091	254.533240	254.533240	254.533240	0.972756	0.972756
1061.0000	0.091	241.747354	241.747354	241.747354	0.972972	0.972972
1061.6000	0.091	228.724287	228.724287	228.724287	0.972561	0.972561
1062.2000	0.091	230.773498	230.773498	230.773498	0.970528	0.970528
1062.8000	0.091	230.030611	230.030611	230.030611	0.969052	0.969052
1063.4000	0.091	229.756772	229.756772	229.756772	0.967424	0.967424
1064.0000	0.091	230.353352	230.353352	230.353352	0.965864	0.965864
1064.6000	0.090	232.347563	232.347563	232.347563	0.964593	0.964593
1065.2000	0.089	234.873650	234.873650	234.873650	0.963833	0.963833
1065.8000	0.088	236.609709	236.609709	236.609709	0.964905	0.964905
1066.4000	0.088	236.910623	236.910623	236.910623	0.967145	0.967145
1067.0000	0.089	236.478624	236.478624	236.478624	0.967220	0.967220
1067.6000	0.089	236.137106	236.137106	236.137106	0.966719	0.966719
1068.2000	0.089	236.138268	236.138268	236.138268	0.966765	0.966765
1068.8000	0.089	236.267752	236.267752	236.267752	0.967104	0.967104
1069.4000	0.089	236.328909	236.328909	236.328909	0.967751	0.967751
1070.0000	0.089	236.312336	236.312336	236.312336	0.968868	0.968868
1070.6000	0.089	236.277957	236.277957	236.277957	0.969984	0.969984
1071.2000	0.089	236.267079	236.267079	236.267079	0.970854	0.970854
1071.8000	0.089	236.274713	236.274713	236.274713	0.972660	0.972660
1072.4000	0.089	236.288847	236.288847	236.288847	0.975273	0.975273
1073.0000	0.089	236.297467	236.297467	236.297467	0.975992	0.975992
1073.6000	0.089	236.288564	236.288564	236.288564	0.974468	0.974468
1074.2000	0.089	236.255289	236.255289	236.255289	0.972784	0.972784
1074.8000	0.089	236.235011	236.235011	236.235011	0.972894	0.972894